File name:	uwb_dipole.rff
Date:	14/03/2014 4:16
Comments:
Frequency:	6.000 GHz
Channel:	Channel1
Switch:
Beam:
4th Axis:
Tertiary:	0.000
Z axis:	Amplitude [dB]


	Roll  [deg]
Azimuth  [deg]	-180.0000	-175.0000	-170.0000	-165.0000	-160.0000	-155.0000	-150.0000	-145.0000	-140.0000	-135.0000	-130.0000	-125.0000	-120.0000	-115.0000	-110.0000	-105.0000	-100.0000	-95.0000	-90.0000	-85.0000	-80.0000	-75.0000	-70.0000	-65.0000	-60.0000	-55.0000	-50.0000	-45.0000	-40.0000	-35.0000	-30.0000	-25.0000	-20.0000	-15.0000	-10.0000	-5.0000	0.0000	5.0000	10.0000	15.0000	20.0000	25.0000	30.0000	35.0000	40.0000	45.0000	50.0000	55.0000	60.0000	65.0000	70.0000	75.0000	80.0000	85.0000	90.0000	95.0000	100.0000	105.0000	110.0000	115.0000	120.0000	125.0000	130.0000	135.0000	140.0000	145.0000	150.0000	155.0000	160.0000	165.0000	170.0000	175.0000	180.0000	
0.0000	-65.5894	-67.6269	-72.9803	-69.1360	-68.0477	-67.3517	-68.4073	-67.7890	-71.2669	-71.8075	-69.2265	-70.6807	-68.8961	-69.7802	-70.5761	-70.9880	-71.6923	-70.7665	-71.8787	-70.8976	-71.5758	-71.5338	-70.8825	-71.4363	-70.6480	-70.1569	-69.5916	-69.3788	-69.8933	-67.8797	-68.2569	-67.4917	-68.1261	-67.6723	-66.4117	-65.7444	-65.8473	-66.1957	-66.7944	-67.7413	-68.2756	-67.9197	-68.2988	-68.4819	-70.4072	-69.7457	-69.5278	-70.4154	-70.9890	-71.4668	-71.7032	-71.7942	-71.6579	-72.4467	-71.8129	-71.3163	-72.2518	-73.1097	-70.8593	-69.5260	-69.9554	-69.8634	-70.0349	-71.0806	-72.8449	-68.1620	-68.8879	-68.3951	-68.0872	-68.2760	-73.2371	-68.3463	-65.6672	
5.0000	-66.2473	-66.4981	-71.2141	-71.0939	-69.1643	-67.4693	-67.5596	-72.1609	-68.6366	-68.0784	-69.5456	-69.6031	-72.9767	-72.9288	-72.6511	-73.2457	-71.3873	-73.8747	-73.0197	-73.5363	-72.1285	-71.8257	-71.6581	-70.9024	-70.9841	-70.6564	-70.2906	-71.0800	-69.2510	-69.2625	-69.1973	-67.4509	-68.1936	-68.3655	-67.2200	-66.1069	-65.8936	-65.9671	-66.3613	-67.1842	-67.9983	-68.0244	-67.8151	-68.8113	-69.1560	-68.5380	-70.0657	-70.6809	-70.8202	-71.3990	-71.0423	-71.1900	-71.5683	-71.2456	-71.5819	-72.8472	-72.6533	-72.3953	-73.3506	-73.9665	-72.6318	-72.3078	-70.8835	-70.0002	-67.6151	-67.1746	-69.7098	-68.3802	-67.5013	-68.4497	-71.3763	-70.9806	-66.0132	
10.0000	-65.7647	-68.0266	-73.3230	-69.1197	-69.8987	-68.0395	-67.9254	-69.7916	-72.4561	-71.9525	-70.8336	-70.8583	-70.2368	-70.8660	-70.3626	-73.7375	-71.8351	-72.9125	-72.4363	-72.7154	-72.6352	-72.4787	-72.3285	-72.9203	-71.8852	-71.7063	-70.6070	-70.4394	-70.8386	-69.5050	-69.3899	-67.7521	-68.9102	-68.3974	-67.0960	-66.1657	-65.9632	-66.1437	-66.7705	-67.4903	-67.8639	-67.8154	-68.0612	-68.2039	-70.0285	-69.2493	-69.3446	-70.1934	-70.7969	-71.5632	-71.7892	-72.5709	-72.4684	-71.4668	-71.4154	-71.6938	-72.3013	-72.3635	-71.5322	-70.5488	-69.8436	-71.6382	-70.7781	-71.0896	-71.2678	-68.0072	-67.8342	-67.9969	-68.3174	-69.2699	-73.6901	-68.4909	-65.8219	
15.0000	-66.2373	-66.7344	-71.8619	-70.2101	-69.2152	-68.9985	-69.7008	-70.4227	-70.2358	-70.1077	-69.9308	-72.2035	-74.7507	-73.6219	-76.2926	-74.0699	-73.3212	-74.7810	-76.3406	-74.9145	-73.1328	-74.1339	-73.3055	-72.4837	-73.9246	-71.9409	-71.9975	-72.6961	-70.3052	-70.0369	-71.2937	-68.5821	-68.6656	-69.0945	-68.0431	-66.6364	-66.1439	-65.9967	-66.4344	-67.2117	-67.8915	-67.8130	-67.6064	-68.9661	-68.8576	-68.4323	-70.2902	-71.1856	-70.6802	-71.2251	-71.6240	-71.0165	-71.4053	-72.4931	-71.5055	-71.3513	-71.4667	-72.9352	-72.4918	-73.7630	-74.4672	-72.7144	-72.1638	-70.2673	-67.6421	-68.0607	-69.6747	-68.5756	-67.8047	-69.5639	-72.0646	-71.2833	-66.2465	
20.0000	-66.1985	-68.7216	-74.4255	-69.0193	-69.8472	-68.8624	-71.2319	-70.8733	-71.8827	-74.7873	-72.8869	-73.1112	-73.9939	-72.0082	-73.4968	-77.1552	-74.5778	-77.0954	-76.9202	-76.5338	-74.4037	-76.6953	-75.7240	-74.9620	-74.9334	-73.4002	-73.2914	-72.5243	-72.6057	-70.3194	-71.3710	-69.0079	-69.5805	-69.2378	-67.8515	-66.6086	-66.2029	-66.2469	-66.9055	-67.8889	-68.0615	-67.6685	-68.1578	-68.6689	-70.2296	-69.1917	-69.0142	-70.7646	-70.6779	-70.6362	-71.7893	-71.6921	-71.3149	-71.3033	-71.0371	-69.7374	-70.5202	-71.5478	-71.2607	-70.0517	-70.3495	-71.5703	-71.4253	-73.7905	-70.4872	-68.4982	-67.6960	-68.3398	-68.7186	-70.1523	-73.7712	-68.8514	-66.2633	
25.0000	-67.0119	-67.4829	-73.4748	-71.1868	-70.3269	-68.4445	-71.4234	-73.3447	-74.8642	-70.3245	-71.3790	-74.8725	-77.3340	-77.4200	-78.2700	-79.0888	-76.9118	-78.7328	-81.7520	-77.5022	-79.8810	-77.6165	-75.8097	-76.3322	-77.9061	-75.6677	-74.5949	-74.3347	-73.5871	-71.8875	-72.6584	-70.1854	-70.3406	-69.9744	-68.9086	-67.3477	-66.6994	-66.4467	-66.7792	-67.6714	-68.3640	-68.2716	-67.8330	-69.3853	-69.1963	-69.1454	-70.8289	-70.6771	-70.4367	-71.2934	-70.1564	-69.9025	-70.5527	-70.3642	-69.8987	-70.2344	-70.7674	-70.5084	-70.5102	-72.6690	-72.9667	-71.7387	-72.3262	-69.9073	-68.2610	-68.5420	-69.5602	-68.4423	-67.6507	-70.1111	-71.8035	-71.5508	-67.0703	
30.0000	-67.1228	-69.8163	-76.9281	-71.1320	-71.9891	-69.9067	-71.6747	-72.8714	-79.6609	-80.6181	-75.8673	-75.3666	-76.4731	-76.1095	-76.4178	-79.1925	-80.0681	-83.8369	-84.0810	-79.5828	-81.9662	-82.4764	-80.3220	-80.0254	-79.6462	-76.2571	-77.5275	-74.6732	-75.1455	-73.0731	-72.4516	-70.7947	-71.1797	-70.3822	-68.7901	-67.4901	-66.9383	-66.8540	-67.3405	-68.4141	-68.7507	-68.5005	-68.6416	-69.3965	-70.3056	-69.5138	-69.5687	-70.3602	-69.7927	-70.3891	-70.1738	-69.8404	-70.0289	-69.2214	-68.5959	-68.4952	-68.3998	-69.5594	-69.4120	-69.6672	-69.4508	-70.3594	-72.1452	-73.8485	-70.9111	-69.6086	-68.0507	-68.7887	-68.6336	-70.3771	-72.6139	-69.6901	-67.1388	
35.0000	-67.9805	-68.2209	-75.4515	-73.4630	-73.0796	-70.9065	-76.1672	-73.8309	-75.9353	-72.4922	-76.8754	-77.5614	-79.1637	-82.9816	-87.4036	-87.2913	-80.8261	-79.0378	-81.2638	-82.1291	-80.8764	-79.7384	-80.2282	-80.9939	-81.7676	-81.2654	-77.3329	-76.9539	-77.0160	-73.5999	-76.0947	-71.7710	-71.9110	-71.5043	-69.9766	-68.3248	-67.4996	-67.2084	-67.4051	-68.1471	-69.2011	-69.0503	-68.3595	-70.1687	-69.9075	-69.1758	-70.3426	-70.4596	-70.7703	-69.7922	-69.1675	-69.2994	-69.0529	-69.0559	-69.1500	-68.9390	-69.0778	-69.4929	-69.2319	-70.5888	-71.1887	-71.3116	-70.3791	-69.3058	-68.6147	-69.0114	-70.7957	-69.6184	-68.3204	-70.6562	-71.1178	-72.0969	-67.9578	
40.0000	-68.1375	-70.4866	-78.3783	-72.6230	-74.6769	-72.5594	-76.2509	-77.1862	-83.4231	-78.9669	-81.2586	-77.9940	-81.3865	-77.0593	-75.7877	-81.5018	-82.1396	-79.2695	-79.8096	-82.6567	-80.2032	-79.4910	-81.6047	-82.0668	-79.7365	-81.1494	-81.1096	-77.3915	-78.4927	-75.1817	-75.1849	-72.8384	-73.1644	-71.6615	-69.8813	-68.5922	-67.9964	-67.7457	-68.1726	-69.0541	-69.5823	-68.9690	-68.8534	-69.7005	-70.9671	-69.5845	-69.7711	-69.4506	-70.0157	-69.9410	-69.0287	-69.1055	-68.9227	-68.0040	-68.3512	-68.0342	-67.6695	-68.8049	-69.0605	-68.7861	-68.0404	-70.3216	-71.7912	-72.5355	-71.4727	-69.5739	-68.9975	-70.4033	-69.7251	-70.8722	-72.2849	-70.7100	-68.1222	
45.0000	-69.1402	-69.2111	-75.6905	-74.5965	-74.0649	-71.9862	-79.2654	-74.5670	-76.6866	-77.2846	-78.4695	-81.2214	-83.5800	-87.2663	-85.7746	-79.5520	-78.9790	-75.6297	-75.0463	-74.9257	-78.6323	-76.6875	-76.8990	-78.2949	-81.2324	-80.7184	-79.5853	-80.0452	-78.2947	-77.7345	-77.3809	-74.6303	-74.5290	-73.3999	-71.3172	-69.7663	-69.0594	-68.4501	-68.3890	-69.1978	-70.0759	-69.8895	-69.0252	-70.2717	-69.9019	-69.5252	-70.3843	-70.9868	-70.4144	-69.3644	-69.4861	-69.2266	-69.0367	-69.5411	-69.0390	-69.0876	-69.8817	-69.4661	-69.1666	-70.4196	-71.4925	-70.3794	-69.6572	-69.6535	-68.6833	-69.8278	-70.8894	-70.8377	-69.6867	-71.7888	-71.6326	-72.8597	-69.1468	
50.0000	-69.6134	-71.6593	-80.0575	-73.7197	-74.9948	-73.8504	-76.9160	-75.8932	-79.8485	-79.7681	-76.5553	-79.8823	-78.9967	-77.7553	-76.2360	-74.2682	-77.8450	-75.5867	-75.2551	-75.6935	-77.0908	-76.2304	-76.3350	-78.6133	-79.7035	-80.3293	-80.8367	-81.6109	-79.0096	-79.4998	-76.2691	-75.7799	-75.8068	-73.4043	-71.5768	-70.2393	-69.6773	-69.1073	-69.4003	-70.3743	-71.2579	-70.4273	-70.1194	-70.3971	-71.6009	-69.7004	-69.7777	-69.8460	-70.7179	-70.1815	-69.8272	-70.0232	-69.5815	-69.0422	-69.1521	-68.7527	-68.8890	-69.6971	-69.9638	-68.6294	-68.5522	-70.3098	-71.3015	-72.5826	-71.7523	-70.2987	-70.1707	-71.4643	-71.3552	-72.2771	-73.3875	-72.2015	-69.5241	
55.0000	-71.0763	-70.7623	-77.6248	-75.9353	-76.6760	-75.2843	-86.3525	-79.2281	-77.4852	-78.5220	-80.1372	-79.0483	-79.6969	-77.2704	-80.2364	-78.6678	-75.6168	-73.6701	-73.7052	-73.0012	-74.9649	-75.1738	-76.1647	-74.9353	-76.9207	-79.6020	-80.8085	-78.7375	-82.5807	-79.3998	-80.1717	-76.2069	-78.2383	-76.0192	-73.2421	-71.7448	-70.8693	-70.2459	-70.0673	-70.9466	-72.1985	-72.1613	-70.6693	-72.0512	-70.9239	-71.1314	-71.0673	-72.0563	-70.7421	-71.0685	-70.8460	-70.4363	-70.9365	-71.2267	-70.7028	-71.1062	-71.5996	-71.1685	-70.6107	-71.6345	-72.8252	-71.6338	-70.4905	-70.2214	-69.6064	-71.2077	-71.8302	-72.8853	-71.2147	-73.1701	-73.3328	-74.8584	-71.3512	
60.0000	-71.7894	-73.8616	-83.0183	-77.3688	-79.7799	-77.5747	-83.6116	-83.8769	-81.6827	-78.6607	-81.2191	-80.7266	-80.3024	-76.1379	-74.5928	-73.5617	-76.9687	-74.4369	-74.2514	-73.4960	-75.5237	-75.0572	-76.8370	-75.8603	-77.1961	-79.4383	-82.2474	-80.7452	-83.3436	-81.8115	-79.2623	-77.6552	-79.6732	-76.0933	-73.8849	-72.6980	-71.8040	-71.1556	-71.5081	-72.6441	-73.3195	-72.4208	-72.0871	-71.8769	-72.9938	-71.6105	-71.2201	-71.8612	-71.5676	-71.9200	-72.0282	-71.9676	-72.1573	-72.0319	-71.7875	-71.3581	-71.7314	-72.1925	-72.3034	-70.7475	-70.2044	-71.9706	-72.5499	-73.9554	-72.7401	-71.8120	-72.3628	-73.0360	-73.2673	-73.5680	-75.1430	-74.9486	-71.6986	
65.0000	-74.0807	-73.0568	-81.7517	-81.5655	-81.6261	-78.3657	-80.3390	-78.6782	-79.2798	-77.6098	-81.4172	-78.9241	-77.3923	-78.2723	-79.3104	-76.8300	-74.9662	-73.8022	-73.6700	-73.8367	-74.2001	-75.4832	-76.3435	-76.7033	-76.9639	-79.1245	-79.9980	-82.0455	-83.2076	-82.2521	-86.9215	-78.4030	-82.1478	-80.5195	-76.1594	-74.4632	-73.6654	-72.6481	-72.5614	-73.4205	-74.9273	-74.8470	-73.0747	-74.0258	-72.1770	-73.4856	-73.5448	-74.0760	-73.2720	-73.5853	-73.6203	-73.4582	-73.7026	-74.3931	-73.7938	-74.3318	-74.6655	-73.8712	-73.6384	-75.2038	-75.9854	-73.5089	-72.5377	-72.3318	-71.2795	-73.1556	-73.8854	-75.4837	-74.0057	-74.5875	-75.7232	-77.8913	-74.1083	
70.0000	-74.8554	-77.2764	-95.6012	-82.8709	-81.0060	-77.9783	-79.6797	-85.5376	-88.9079	-82.2852	-80.5146	-78.3774	-75.9551	-75.3624	-74.8257	-74.9559	-78.6164	-75.1425	-74.9463	-74.7568	-76.6106	-76.8453	-78.1506	-78.2079	-77.7908	-79.7173	-80.6450	-85.2028	-87.6664	-84.4710	-84.9008	-80.3111	-84.5614	-80.2135	-76.9860	-76.1363	-75.1500	-74.1868	-74.8664	-75.6399	-76.4808	-75.2520	-74.8902	-74.1999	-75.6922	-74.1351	-74.2175	-75.1141	-74.7345	-75.0386	-75.1387	-75.2465	-76.3034	-76.4776	-75.9136	-75.4523	-76.2361	-75.5023	-76.4403	-73.5663	-73.5133	-74.1728	-74.6489	-76.9276	-75.7592	-74.6186	-75.5498	-75.7221	-76.5448	-76.1270	-78.2012	-78.7762	-74.9327	
75.0000	-79.0569	-77.4727	-95.9085	-91.6305	-81.1131	-80.9531	-83.4807	-83.5669	-86.8495	-88.9864	-88.6524	-82.8398	-82.3680	-81.5106	-78.6051	-75.8510	-77.4269	-77.1673	-76.8068	-76.3194	-77.0621	-77.3198	-78.9885	-79.4591	-79.7941	-83.5542	-87.2013	-83.8003	-86.7968	-88.2244	-92.5099	-82.1473	-86.7709	-85.6810	-79.8699	-79.0376	-78.4255	-76.9654	-77.3209	-77.3023	-78.8937	-78.9912	-76.9395	-78.6642	-76.0293	-76.6201	-78.1799	-78.1056	-77.0455	-78.0825	-78.2979	-78.5094	-78.1483	-77.9927	-79.0938	-79.2822	-79.8489	-79.2400	-77.6694	-81.1852	-80.6776	-77.8024	-76.7132	-76.2329	-74.8505	-76.1014	-78.1211	-79.2277	-78.7967	-77.7945	-80.4383	-81.0539	-79.4084	
80.0000	-80.7053	-85.8164	-89.9311	-83.5555	-83.2790	-84.1260	-89.5042	-84.4090	-81.5349	-78.5893	-79.1880	-78.0740	-79.5393	-86.3130	-81.6476	-78.5310	-83.9305	-77.5790	-80.0504	-80.6896	-81.7696	-81.4730	-83.0754	-83.2575	-81.8723	-83.4486	-89.0051	-89.1128	-98.4630	-88.6877	-92.7768	-85.1876	-92.5901	-86.5980	-82.3982	-81.5986	-81.3394	-80.1280	-81.0610	-81.0190	-82.5023	-81.3802	-80.7628	-79.6362	-81.6113	-79.0596	-78.6957	-81.0271	-80.2487	-80.8892	-79.8372	-81.6221	-84.5185	-81.2182	-82.2790	-81.8002	-83.4142	-81.5581	-82.2859	-80.9374	-78.7269	-79.0139	-78.7628	-82.3038	-83.2755	-79.6316	-82.3331	-80.7177	-84.1184	-81.3782	-84.6379	-87.5579	-80.5527	
85.0000	-89.2413	-86.6056	-87.5529	-89.0004	-83.7145	-92.5170	-88.6639	-82.2542	-82.4031	-82.2118	-82.8407	-81.5304	-82.1963	-81.1599	-84.6084	-89.8772	-87.1948	-85.8986	-82.6165	-82.7928	-82.5007	-87.3583	-89.4415	-89.5447	-86.1685	-103.0555	-92.0949	-92.1593	-99.8978	-95.1516	-104.8907	-89.8826	-99.2852	-95.6166	-87.8256	-87.8630	-88.8653	-85.6879	-86.3478	-85.8474	-89.7526	-89.4186	-85.7248	-89.8399	-83.3584	-83.3669	-88.1449	-87.7537	-86.1751	-86.5872	-85.4582	-85.5711	-87.5568	-88.5561	-86.7218	-85.4251	-88.2982	-90.3740	-86.1784	-87.9550	-91.3583	-86.1800	-82.4635	-86.2659	-80.3175	-83.0986	-86.7623	-89.9567	-93.8554	-83.7756	-98.1210	-89.6235	-88.1709	
90.0000	-86.4393	-88.8386	-84.6816	-86.3325	-94.1684	-100.5451	-91.7252	-84.4023	-84.5948	-87.0492	-92.5074	-91.7207	-90.3059	-89.4949	-92.7632	-88.6612	-87.6845	-90.8788	-91.1143	-92.3246	-93.5004	-95.9166	-91.8124	-90.0973	-89.3309	-94.5490	-98.3656	-96.0158	-91.0276	-93.4843	-98.0389	-95.4136	-115.3513	-101.2620	-92.7782	-96.7756	-100.8147	-113.4381	-100.8329	-98.0428	-98.5522	-104.9511	-95.6665	-92.6777	-108.0683	-92.2393	-92.9604	-99.3759	-104.8274	-102.9434	-96.8869	-100.1085	-96.0346	-91.5837	-93.6666	-95.8444	-97.4387	-95.8114	-102.6756	-95.1251	-94.3625	-89.5355	-91.1329	-90.3509	-88.4416	-109.1717	-107.6561	-95.6483	-87.9732	-92.1214	-93.3600	-91.7748	-86.3353	
95.0000	-81.9580	-84.9175	-82.4762	-86.7670	-88.7957	-90.3357	-87.9220	-86.0783	-90.3163	-90.7234	-94.5551	-92.2880	-89.6664	-83.2077	-78.2960	-84.2975	-83.6923	-87.7681	-86.4162	-86.1010	-85.5207	-83.8878	-82.4737	-88.8550	-86.0818	-83.6961	-90.7067	-89.2525	-87.2016	-98.0512	-89.3581	-100.3349	-92.3799	-88.9192	-89.0255	-86.4211	-85.7519	-87.4745	-85.8563	-87.3577	-85.9579	-85.1200	-90.6910	-85.3027	-88.4369	-90.9781	-86.9708	-85.6349	-87.5628	-87.3282	-88.0401	-88.9154	-91.2935	-89.4448	-89.2979	-87.2328	-87.5501	-84.2800	-90.3437	-87.1026	-89.5517	-84.2086	-87.2554	-86.5759	-86.0178	-93.1523	-87.0998	-84.9511	-83.3764	-91.1783	-84.2081	-91.2313	-81.5695	
100.0000	-79.0801	-79.8796	-82.3033	-85.5808	-83.1898	-93.1564	-96.5451	-95.8067	-103.0395	-92.4057	-85.5189	-82.0134	-79.3955	-76.7477	-74.9235	-76.2470	-77.0609	-85.1257	-80.3080	-81.4182	-79.8926	-79.6049	-79.7569	-80.9348	-86.0574	-83.1355	-84.9851	-93.6781	-83.7386	-88.4510	-85.8430	-90.9350	-88.7478	-83.5648	-83.0925	-81.3332	-81.0711	-80.7415	-79.9351	-81.1280	-80.8266	-81.0767	-81.8106	-80.6868	-81.2817	-80.4336	-83.1269	-83.6372	-82.3729	-80.7661	-81.2228	-80.8036	-79.8100	-81.9695	-81.4671	-80.0747	-80.7532	-83.3523	-80.8741	-80.3674	-80.9090	-82.9956	-80.5972	-83.0006	-77.0550	-78.9845	-82.5618	-81.9693	-78.4507	-83.9165	-82.5843	-79.8030	-79.3789	
105.0000	-75.7506	-77.1448	-79.4354	-82.8429	-81.6270	-83.8599	-94.1217	-96.7650	-87.3689	-87.2495	-93.4753	-90.0165	-87.2478	-81.1043	-76.1431	-75.2367	-73.1094	-78.1461	-82.9975	-77.4785	-75.0844	-78.0012	-77.7676	-79.5269	-79.0850	-78.8153	-81.5456	-84.3597	-82.0426	-87.1210	-84.3055	-86.8931	-83.9763	-82.1048	-80.5750	-78.8004	-77.3338	-77.3254	-76.2628	-77.4342	-77.8954	-77.2715	-78.5311	-77.5584	-78.1098	-78.8765	-79.2730	-77.9764	-77.8223	-77.5294	-78.9850	-80.3961	-78.7782	-78.9362	-79.6849	-78.7527	-78.8899	-76.9113	-79.5510	-77.9515	-80.5593	-76.9856	-79.7701	-76.7147	-75.3920	-80.1981	-77.5761	-77.8609	-76.4806	-79.6396	-77.9856	-81.1403	-75.7751	
110.0000	-74.7453	-76.1937	-80.6127	-79.3070	-78.9365	-91.4343	-84.3613	-83.6148	-85.2907	-99.3390	-84.2498	-80.2752	-81.3850	-77.6431	-73.5717	-73.6751	-72.5418	-76.1400	-77.8142	-76.5049	-74.5210	-75.7721	-75.3067	-78.1011	-79.8997	-79.7975	-82.2108	-85.4582	-83.5370	-84.7402	-81.5098	-83.0536	-82.7768	-78.6045	-77.1478	-75.8081	-75.1575	-74.7518	-74.3066	-75.3701	-75.3910	-75.1250	-75.8221	-75.4170	-76.4252	-75.2421	-75.9377	-77.1430	-76.0507	-75.4857	-75.5779	-75.1926	-74.6509	-75.5529	-75.1017	-74.6757	-75.2361	-77.2081	-75.2023	-74.7212	-74.3707	-75.5845	-75.3894	-77.8125	-72.8588	-73.3015	-76.5792	-76.6714	-74.4806	-77.2339	-77.5135	-75.3343	-74.5532	
115.0000	-72.4890	-73.5947	-78.1354	-78.3237	-77.9216	-78.7338	-84.6621	-85.3768	-83.1040	-81.1505	-87.1454	-89.9405	-86.5393	-82.6738	-79.1716	-75.9904	-71.7680	-73.2598	-77.0070	-75.6781	-73.6382	-74.4330	-75.2796	-75.9254	-77.6523	-78.3275	-79.3345	-82.5362	-80.9906	-82.1191	-81.9032	-81.5488	-80.3528	-77.7452	-76.1481	-74.3688	-73.3199	-73.1101	-72.5871	-73.1847	-73.8732	-73.4989	-73.6815	-73.4937	-73.8072	-73.8547	-74.3552	-73.0683	-73.3747	-73.6499	-74.5128	-74.9943	-73.9370	-73.8454	-74.0098	-73.6277	-73.3492	-73.6242	-74.5175	-74.3391	-75.7861	-74.6790	-74.4961	-73.3047	-71.0258	-74.5756	-74.4660	-73.8118	-73.4891	-75.2567	-74.4052	-76.5016	-72.5762	
120.0000	-71.7925	-73.9611	-78.8505	-76.1804	-76.8797	-82.2298	-78.8597	-78.3033	-85.4785	-89.0344	-82.5037	-80.1023	-80.0105	-77.1922	-74.2863	-75.1868	-71.8375	-75.3165	-76.0966	-75.3247	-72.7202	-74.7100	-75.7077	-77.3320	-78.8475	-78.4217	-80.6825	-83.6743	-81.6465	-82.3411	-79.6652	-78.3274	-78.6712	-75.3682	-73.5584	-72.5157	-71.9146	-71.5896	-71.4111	-72.0911	-72.4496	-71.8302	-72.2105	-72.1467	-73.2814	-71.7817	-71.8483	-73.2103	-72.8301	-72.1822	-71.9742	-71.8256	-71.2374	-71.4371	-71.0501	-70.9654	-71.7537	-73.0063	-71.4560	-71.4452	-70.9469	-71.6963	-72.9017	-74.5723	-71.3716	-70.5478	-72.9275	-73.8700	-72.0822	-73.7006	-75.2140	-72.3658	-71.8425	
125.0000	-70.5078	-71.5823	-76.8906	-75.9550	-76.7590	-76.1482	-80.8707	-80.3284	-80.5093	-78.2119	-82.5742	-85.4867	-87.7775	-82.2994	-81.0639	-77.4800	-72.6102	-73.5561	-75.4056	-74.7985	-74.5414	-75.4949	-75.3145	-75.6054	-77.6395	-78.3792	-79.3889	-83.5745	-80.7706	-80.2511	-79.5629	-77.5880	-77.3966	-75.0589	-73.0881	-71.6120	-70.7042	-70.3786	-70.0106	-70.4561	-71.2742	-71.0978	-71.0550	-70.9934	-71.2049	-71.1757	-71.5365	-71.0231	-70.9662	-70.7198	-71.1686	-71.5918	-70.9558	-70.6721	-70.5677	-70.1464	-70.3180	-71.0026	-71.2002	-71.5214	-72.8842	-72.5582	-73.2821	-70.7925	-69.2336	-71.4472	-72.7043	-71.7872	-71.0602	-73.0281	-72.6283	-73.8652	-70.4273	
130.0000	-69.9187	-72.3404	-77.4448	-74.7067	-75.0430	-78.7558	-75.0430	-75.8900	-81.1448	-83.9471	-80.4387	-78.0129	-78.4943	-76.9894	-75.3600	-77.4588	-74.4705	-76.7749	-77.7779	-78.4432	-74.5013	-76.3056	-77.5947	-79.7716	-81.1850	-81.3652	-83.0933	-82.0918	-79.4199	-78.5746	-78.0097	-75.2681	-75.1280	-72.9608	-71.3638	-70.0713	-69.4731	-69.3622	-69.4163	-69.8303	-70.4562	-70.0592	-70.2545	-70.2466	-71.0248	-70.1588	-70.1596	-70.9862	-70.6703	-70.2001	-69.8740	-69.6338	-69.1413	-69.0331	-68.6054	-68.6095	-69.1655	-70.5805	-69.3734	-69.3470	-68.9937	-69.8769	-70.6103	-72.8196	-70.5087	-69.7282	-70.2309	-72.5888	-70.4689	-71.6048	-73.7985	-70.7044	-69.7543	
135.0000	-69.0390	-69.7664	-76.3472	-74.5018	-75.1966	-73.2036	-76.7615	-76.5507	-77.0033	-76.3319	-81.5856	-81.4742	-90.4087	-91.6021	-88.4456	-83.9412	-76.4090	-76.3754	-77.7023	-77.6852	-78.0476	-79.0584	-78.1716	-78.0274	-81.9018	-82.7161	-79.6374	-81.3056	-78.6700	-77.1521	-77.7075	-74.3608	-74.2582	-72.7263	-70.9846	-69.6167	-68.9146	-68.3934	-68.4256	-68.8213	-69.3269	-69.4359	-69.5113	-69.8184	-69.5814	-69.5724	-70.1716	-70.3220	-69.5441	-69.2555	-69.5967	-69.4250	-69.1921	-69.1901	-68.5196	-68.6731	-68.5009	-69.4433	-69.4627	-70.8303	-71.4074	-71.5788	-72.0398	-70.2231	-68.4715	-70.3823	-70.8350	-71.1301	-69.0409	-72.1063	-71.4415	-71.9209	-69.0903	
140.0000	-68.6209	-71.2718	-76.3220	-73.5658	-71.5120	-74.7111	-72.0185	-73.3920	-79.1102	-82.7421	-79.3704	-79.0480	-80.0663	-79.1699	-78.1021	-80.9750	-77.8773	-81.8009	-85.8980	-86.9401	-79.4018	-80.1282	-83.3857	-90.2424	-84.4926	-79.0435	-83.2728	-78.8815	-78.6283	-74.0188	-75.9264	-72.5011	-72.8504	-71.1335	-69.4382	-68.3578	-68.0077	-67.8690	-68.0356	-68.4034	-68.8663	-68.8024	-69.0084	-69.2828	-69.8568	-69.8266	-69.2628	-69.8971	-70.0075	-69.7812	-69.2685	-68.6640	-68.7646	-68.0871	-67.7959	-67.7389	-68.5505	-69.3245	-68.5865	-68.4153	-68.1414	-68.9303	-70.8604	-72.3292	-70.4917	-69.2412	-69.2304	-70.5357	-70.1108	-70.3931	-72.7621	-69.4754	-68.5138	
145.0000	-68.1310	-68.6465	-75.3507	-73.8520	-72.9628	-69.6227	-73.8209	-75.2836	-74.2796	-73.5287	-75.9917	-79.0755	-84.5136	-81.2242	-79.5154	-81.1917	-77.9159	-81.7604	-86.8363	-87.3672	-85.5090	-85.4807	-84.8768	-81.9685	-80.6537	-79.5099	-79.0395	-78.1613	-76.5962	-72.9526	-76.3048	-71.5111	-71.8868	-70.9975	-69.3279	-68.1171	-67.5498	-67.1997	-67.4081	-67.7858	-68.1754	-68.3314	-68.3956	-69.0336	-69.0339	-68.9835	-69.4065	-70.0552	-69.5568	-69.3412	-69.3441	-69.1184	-69.2501	-68.8664	-68.2671	-68.5656	-67.9465	-69.3120	-69.8323	-71.0115	-71.9314	-71.8156	-72.4542	-70.4817	-67.9829	-69.7563	-70.0127	-70.3736	-68.1253	-71.2958	-70.9599	-70.8088	-68.1631	
150.0000	-67.6159	-70.1919	-75.3847	-73.1240	-69.3952	-72.5359	-70.8286	-72.3892	-77.0463	-77.4510	-76.2674	-78.2695	-77.0033	-76.6270	-76.4918	-77.9801	-81.2626	-87.2799	-82.5422	-79.5957	-80.4146	-81.4391	-79.5420	-79.2513	-79.3966	-77.6397	-77.5998	-74.0765	-75.4692	-71.8709	-72.8463	-70.3107	-70.9973	-69.6386	-68.0920	-67.3288	-66.8751	-66.8426	-67.3841	-67.6515	-67.9999	-67.9186	-68.3253	-68.5417	-69.1390	-69.4452	-69.2562	-69.9090	-70.3847	-69.6204	-69.4281	-69.4053	-69.2871	-68.8960	-69.2978	-68.3164	-69.8255	-69.7668	-68.9604	-68.6242	-68.4358	-69.4819	-70.9520	-71.9025	-71.4774	-68.7592	-69.2199	-68.0249	-70.1437	-69.3886	-72.1849	-68.8404	-67.5778	
155.0000	-67.5432	-67.8049	-74.2336	-73.0955	-71.5898	-67.8150	-71.5398	-76.9265	-75.1627	-71.5273	-74.5230	-75.7096	-78.1862	-75.5793	-75.6955	-75.4443	-80.4454	-91.3646	-81.4962	-82.1544	-82.8694	-81.1408	-76.3189	-77.0933	-76.9913	-75.9810	-74.2402	-74.3402	-73.9990	-70.7032	-73.2572	-69.7490	-70.0831	-69.8678	-68.1367	-67.1035	-66.7335	-66.4425	-66.6972	-67.3739	-67.6377	-67.8479	-67.6604	-68.3722	-68.5015	-68.7692	-69.4132	-70.3677	-69.9310	-69.2902	-70.2004	-69.8328	-69.8360	-69.6419	-69.6819	-69.0643	-68.9334	-70.2564	-71.7943	-72.0090	-73.1260	-73.8612	-73.9648	-71.0951	-68.6933	-68.5415	-70.3364	-68.4997	-67.9557	-69.8847	-70.7759	-70.3572	-67.5186	
160.0000	-66.9120	-69.3281	-73.9954	-72.1737	-68.5648	-70.2848	-70.0872	-71.8322	-76.2420	-78.4268	-75.3794	-74.2502	-74.1531	-73.4470	-73.4631	-77.5589	-75.6791	-75.0565	-76.5712	-75.8020	-74.6708	-74.5347	-75.2951	-75.0205	-75.1630	-73.7516	-74.2786	-71.2995	-72.8565	-70.1093	-70.8796	-68.7043	-69.4501	-68.6101	-67.1628	-66.6533	-66.1942	-66.2084	-66.9887	-67.4124	-67.5721	-67.3137	-67.7115	-67.7346	-69.1390	-69.0892	-69.3175	-70.1495	-70.4857	-70.5534	-70.6092	-70.6349	-71.1002	-70.7415	-70.6233	-70.6318	-71.2105	-71.2981	-69.7831	-69.6492	-69.2782	-69.4655	-69.5540	-71.9139	-71.7752	-68.3640	-68.6843	-67.2753	-69.6149	-68.7778	-72.1207	-68.5717	-66.8824	
165.0000	-66.9864	-67.2159	-72.8155	-71.4765	-70.8362	-67.6380	-69.3671	-75.2369	-73.9644	-71.3728	-72.5414	-72.0696	-73.3632	-72.1755	-73.0437	-74.3090	-75.0652	-77.4219	-77.0499	-77.3877	-76.6479	-74.5826	-73.8125	-73.7546	-73.5256	-72.0551	-71.8269	-71.5620	-71.6912	-69.1346	-71.1164	-68.3256	-68.6836	-68.9297	-67.2492	-66.5014	-66.1390	-65.8821	-66.3966	-67.1531	-67.4508	-67.2280	-67.1949	-67.9054	-68.5619	-68.4070	-69.4445	-70.1285	-69.7521	-70.0939	-70.2471	-70.3733	-70.7836	-70.6015	-70.7448	-70.5026	-70.2218	-72.1551	-73.3431	-74.2966	-72.4121	-75.0569	-73.9772	-71.1814	-68.2579	-67.6697	-70.1991	-67.5705	-67.8175	-69.2184	-70.8012	-70.2743	-66.9514	
170.0000	-66.4831	-68.8488	-72.8013	-70.8355	-68.5299	-69.5493	-69.0640	-68.7618	-73.8513	-75.2176	-71.4516	-71.5515	-69.7570	-70.1861	-72.6290	-74.0999	-73.7822	-72.4625	-72.9179	-72.6843	-72.1061	-72.3545	-72.0389	-72.6380	-72.8335	-72.4709	-71.0831	-69.9737	-70.7000	-68.7171	-69.3371	-67.4572	-68.8245	-67.8333	-66.6329	-66.2458	-65.8640	-65.8683	-66.6955	-67.5180	-67.3936	-66.8198	-67.7658	-67.6525	-69.3073	-68.5892	-69.1969	-69.9461	-70.9889	-70.4125	-71.1028	-71.4555	-71.8126	-72.1613	-71.6281	-71.7222	-73.0005	-70.3757	-70.3422	-69.3640	-69.9554	-68.5491	-69.7833	-70.6776	-71.7844	-68.7332	-67.2921	-67.8107	-68.6892	-69.0088	-71.6702	-68.6056	-66.5319	
175.0000	-66.8486	-67.1144	-72.2173	-70.1088	-70.1051	-68.1595	-68.9939	-73.2981	-71.6991	-69.2352	-69.3283	-69.7579	-70.4949	-72.5765	-73.1826	-71.8610	-73.0066	-74.8417	-74.6735	-74.3064	-74.3736	-73.2483	-72.3548	-72.0214	-71.2051	-70.7026	-69.7856	-70.5489	-69.8610	-68.5295	-69.8048	-67.3991	-68.2655	-68.2741	-66.8586	-66.2386	-65.8904	-65.6873	-66.2001	-67.1156	-67.6190	-67.0368	-67.2166	-68.3240	-68.4777	-67.8892	-69.7738	-69.9523	-69.9749	-69.4285	-70.2667	-70.3901	-70.1486	-71.0484	-70.7257	-71.3581	-70.8251	-72.3502	-74.2953	-72.1620	-73.2646	-72.9521	-74.4343	-70.8893	-68.7499	-66.6420	-70.0421	-68.2700	-67.3032	-69.6298	-70.5652	-70.4256	-66.7967	
180.0000	-66.5067	-68.8560	-71.8392	-69.4686	-68.2192	-70.2082	-69.5349	-67.3178	-71.4630	-71.7999	-70.1777	-70.0051	-69.9030	-69.5497	-71.4722	-73.6731	-72.7087	-70.9730	-71.4758	-71.7890	-70.9914	-70.9965	-71.4905	-71.7589	-71.9344	-71.2757	-70.2435	-68.9221	-69.7455	-68.3316	-68.3400	-67.2280	-68.3418	-67.4268	-66.5547	-66.0619	-65.7452	-65.9326	-66.6509	-67.5530	-67.7637	-66.9812	-68.4994	-67.4306	-69.5640	-69.0251	-69.4036	-69.9487	-70.8561	-71.4308	-70.9248	-71.2407	-72.7901	-71.8792	-72.3574	-71.0888	-73.0077	-70.4147	-69.6719	-70.2266	-68.7983	-69.9612	-68.6725	-70.6460	-72.0211	-68.2242	-68.0256	-67.4554	-69.0970	-69.3667	-71.7199	-68.6811	-66.4687	
