File name:	uwb_dipole.rff
Date:	14/03/2014 4:16
Comments:
Frequency:	4.300 GHz
Channel:	Channel1
Switch:
Beam:
4th Axis:
Tertiary:	0.000
Z axis:	Amplitude [dB]


	Roll  [deg]
Azimuth  [deg]	-180.0000	-175.0000	-170.0000	-165.0000	-160.0000	-155.0000	-150.0000	-145.0000	-140.0000	-135.0000	-130.0000	-125.0000	-120.0000	-115.0000	-110.0000	-105.0000	-100.0000	-95.0000	-90.0000	-85.0000	-80.0000	-75.0000	-70.0000	-65.0000	-60.0000	-55.0000	-50.0000	-45.0000	-40.0000	-35.0000	-30.0000	-25.0000	-20.0000	-15.0000	-10.0000	-5.0000	0.0000	5.0000	10.0000	15.0000	20.0000	25.0000	30.0000	35.0000	40.0000	45.0000	50.0000	55.0000	60.0000	65.0000	70.0000	75.0000	80.0000	85.0000	90.0000	95.0000	100.0000	105.0000	110.0000	115.0000	120.0000	125.0000	130.0000	135.0000	140.0000	145.0000	150.0000	155.0000	160.0000	165.0000	170.0000	175.0000	180.0000	
0.0000	-62.1323	-62.6567	-64.8253	-63.9239	-62.4699	-63.5479	-62.8788	-63.5477	-63.4379	-64.6422	-64.4195	-64.7143	-63.7390	-66.5788	-65.0100	-63.7829	-64.6130	-66.1316	-65.2047	-64.7320	-65.6749	-65.8416	-65.4236	-64.5028	-65.5939	-64.8970	-65.5600	-64.3872	-65.7858	-63.4786	-64.8812	-63.4923	-64.5347	-65.1479	-64.5851	-63.9793	-63.6848	-63.7499	-64.1457	-64.5826	-64.6601	-63.2253	-63.0776	-65.6600	-63.6200	-65.4189	-64.1982	-65.2552	-65.3509	-65.4082	-64.7343	-65.2969	-66.2923	-64.8418	-65.1160	-64.2062	-65.7214	-64.6524	-64.2778	-63.2970	-67.2658	-65.6222	-64.5282	-65.0063	-64.1014	-64.1565	-63.6349	-62.6172	-62.1021	-62.0046	-64.4365	-63.8644	-62.1847	
5.0000	-62.1982	-63.6205	-65.5566	-63.4276	-62.6232	-63.4862	-63.6572	-64.3662	-64.0875	-64.8657	-65.8023	-66.3257	-64.4826	-65.0035	-68.2172	-66.3077	-65.6732	-66.3694	-67.6679	-66.0452	-66.4786	-65.6909	-67.6163	-65.9692	-66.0841	-65.8253	-65.4902	-65.8632	-65.2699	-64.8535	-64.3134	-63.5766	-65.1373	-65.2474	-64.5778	-63.8303	-63.5641	-63.6779	-64.1059	-64.3774	-64.0288	-62.7288	-63.3204	-64.7624	-63.0735	-64.5760	-64.1270	-63.8676	-64.8446	-64.7034	-64.4451	-63.4020	-64.5247	-64.0332	-65.2157	-63.6548	-64.2513	-64.4036	-65.3250	-62.5023	-63.0015	-64.3842	-64.7792	-64.3071	-63.0349	-64.4181	-62.3395	-62.7529	-61.5610	-62.5317	-64.3244	-62.9244	-62.2886	
10.0000	-62.3343	-63.0821	-65.5806	-65.2470	-62.8547	-63.6705	-63.4947	-64.9241	-65.6612	-64.9571	-65.2753	-67.2798	-66.3444	-68.7020	-66.3669	-67.1765	-66.8246	-68.8752	-67.8743	-68.9699	-66.9693	-69.6255	-67.1170	-66.6409	-67.1304	-67.2295	-67.6179	-65.1271	-67.4814	-65.1896	-65.9159	-63.4464	-64.3809	-65.7387	-65.2380	-64.3017	-63.7000	-63.4438	-63.6794	-64.0204	-64.3448	-63.0280	-62.4648	-64.4317	-62.8751	-64.0411	-63.1879	-64.1344	-63.1462	-64.3949	-63.2767	-64.3946	-64.0345	-64.2367	-62.5614	-62.7882	-63.7685	-64.1796	-62.3820	-63.1748	-65.2227	-64.5564	-62.8656	-63.6040	-64.0332	-63.2546	-63.1571	-62.2300	-62.3229	-61.8940	-63.8968	-63.5394	-62.3757	
15.0000	-62.5527	-64.1655	-66.7976	-64.4627	-63.5538	-64.6818	-64.0656	-65.4788	-66.8319	-67.4311	-65.6401	-68.7920	-66.7997	-69.4991	-69.1582	-69.1331	-67.6814	-70.3389	-69.0879	-70.1426	-67.3339	-69.2601	-69.9739	-68.2537	-67.0083	-67.5695	-68.2975	-66.3882	-66.7381	-66.3128	-65.6995	-63.8083	-65.2212	-65.9065	-65.1385	-64.1596	-63.6080	-63.5331	-63.7950	-64.0597	-63.8671	-62.4984	-62.6868	-64.2331	-62.7071	-63.4739	-63.4603	-63.3641	-63.0852	-63.8842	-63.1816	-63.2879	-62.7979	-64.2107	-63.8425	-62.6930	-62.9069	-64.4245	-63.5529	-62.1012	-62.1076	-64.8270	-63.6887	-63.9187	-62.9177	-64.1934	-62.3087	-63.0944	-62.1984	-62.6139	-64.1869	-63.0992	-62.5668	
20.0000	-62.8560	-63.4824	-66.3762	-66.3687	-64.0175	-65.5272	-65.1362	-65.6854	-66.0889	-67.7484	-68.6090	-67.9283	-68.4814	-70.1361	-69.8990	-67.9816	-69.9934	-70.5161	-70.3755	-69.0455	-70.0286	-70.7467	-67.8276	-68.2298	-69.3233	-68.2425	-68.1848	-67.0046	-68.1968	-65.9730	-67.9208	-64.8996	-64.7993	-66.0176	-65.9266	-64.7703	-64.0575	-63.6122	-63.7465	-64.0031	-64.2762	-63.0096	-62.1443	-63.8770	-62.8502	-63.6823	-62.4110	-63.8915	-62.9548	-63.5098	-62.7924	-64.0731	-64.5176	-63.0154	-62.6106	-62.6977	-63.6512	-63.8054	-62.5344	-63.0664	-64.4865	-63.9323	-62.9154	-62.9923	-64.7738	-62.9242	-63.8300	-62.8727	-63.3847	-62.4132	-64.0593	-64.0272	-62.8331	
25.0000	-63.2370	-64.7037	-67.6871	-65.5711	-64.6851	-66.9309	-66.3878	-67.9709	-66.5797	-68.5844	-69.0092	-70.6674	-67.7701	-69.7234	-71.7992	-69.4110	-67.7563	-70.7225	-69.6671	-69.1467	-67.7528	-71.3502	-69.1443	-68.3904	-67.7395	-68.7112	-68.6772	-67.0971	-67.7418	-66.5495	-67.5997	-65.1898	-65.8123	-66.4694	-65.9234	-64.7402	-64.1039	-63.7871	-63.9321	-64.2878	-64.2731	-62.6091	-62.4553	-63.8340	-62.8061	-63.7970	-62.9332	-63.3662	-63.2837	-64.1973	-63.3437	-63.1826	-63.5656	-64.3393	-64.1411	-62.9652	-63.2129	-65.0224	-64.0058	-63.0066	-62.3875	-64.7971	-64.1415	-63.4630	-63.6184	-64.0490	-62.9903	-64.3385	-63.2640	-63.1023	-64.6973	-63.8217	-63.2702	
30.0000	-63.6856	-64.2896	-67.1578	-67.3053	-64.7395	-66.5500	-66.8074	-68.6709	-69.0306	-68.4329	-68.9500	-68.4717	-71.4033	-69.8535	-69.2900	-67.7119	-71.1240	-67.6578	-69.8348	-67.7011	-69.5338	-67.3762	-68.6002	-66.9523	-69.9691	-67.6173	-68.7230	-67.4496	-68.1682	-66.7488	-67.9580	-66.4381	-65.9750	-66.8203	-66.8423	-65.4514	-64.6774	-64.1348	-64.0210	-64.2058	-64.6918	-63.5411	-62.4290	-63.6844	-62.7956	-63.9352	-63.0668	-63.7035	-63.4970	-63.4165	-64.0686	-64.3328	-65.0393	-63.3461	-63.8719	-63.1268	-65.2247	-64.7436	-63.8562	-63.7830	-66.1390	-64.9399	-63.8316	-63.3496	-65.1632	-63.3647	-63.9474	-63.5990	-64.9199	-63.3837	-64.4878	-64.9198	-63.7083	
35.0000	-64.2161	-65.6827	-68.4849	-66.2107	-65.3742	-67.3478	-66.5085	-69.0952	-68.5369	-71.4201	-69.5271	-68.7800	-68.9724	-68.2385	-72.2094	-67.2135	-68.2419	-67.1526	-68.8525	-66.9497	-68.1047	-67.9643	-69.2427	-66.1600	-68.6787	-67.4720	-69.2770	-67.3565	-67.9213	-67.5230	-67.7723	-66.2371	-66.9528	-67.5746	-66.7805	-65.5678	-64.8554	-64.3060	-64.2770	-64.6581	-64.8285	-63.2405	-63.0756	-64.1153	-62.8800	-64.2495	-63.5847	-63.7974	-64.3219	-64.1248	-64.6524	-64.1685	-64.4804	-64.7883	-65.5173	-63.6217	-64.9310	-66.6501	-65.9520	-63.6483	-64.0610	-66.0113	-65.4971	-64.5411	-64.3361	-64.6500	-63.2981	-64.9926	-64.7052	-64.0107	-65.5164	-64.8362	-64.2527	
40.0000	-64.9607	-65.3657	-67.8778	-68.1374	-65.8370	-67.4310	-66.9453	-67.7817	-67.8727	-67.3260	-71.6156	-69.6697	-69.8943	-70.9978	-66.1405	-68.8012	-68.2734	-68.2766	-66.3114	-67.6398	-67.0627	-68.2718	-66.4149	-68.2153	-67.0220	-68.6336	-66.8602	-69.2944	-67.8969	-67.5659	-69.0220	-66.9101	-66.8649	-68.1764	-67.9759	-66.6605	-65.5678	-64.8498	-64.6491	-64.8333	-65.3683	-64.4097	-63.3336	-64.7010	-63.5003	-64.4177	-64.1434	-64.3100	-64.5110	-64.6448	-64.7047	-65.9071	-66.1690	-64.7120	-64.7696	-64.4602	-66.6618	-66.3414	-65.6657	-66.2718	-67.8941	-66.2659	-65.7305	-64.4635	-67.0806	-64.5834	-65.1452	-64.2884	-65.8592	-64.3784	-65.6178	-66.1185	-64.8544	
45.0000	-65.6110	-66.8111	-69.7006	-67.8539	-67.2161	-68.7209	-67.7307	-70.3165	-67.3544	-67.7180	-69.3783	-68.7553	-67.6097	-71.4885	-69.2460	-67.3108	-65.7734	-68.3213	-67.1415	-67.3769	-66.6270	-69.0123	-67.4241	-67.4724	-66.5669	-68.8170	-67.7135	-68.7312	-68.1538	-68.1842	-69.4334	-66.8552	-68.0435	-69.0468	-68.3868	-66.9371	-65.8484	-65.1673	-65.1320	-65.3939	-65.7124	-64.3571	-64.2792	-65.5879	-64.0688	-65.5181	-65.1597	-64.7431	-65.6442	-65.6937	-65.6603	-65.3449	-65.7163	-66.3064	-67.1156	-64.6030	-66.7827	-68.9744	-67.4914	-65.5206	-66.4539	-67.5870	-68.0105	-65.6430	-66.3650	-66.4998	-65.0912	-66.3671	-65.5676	-65.0659	-66.8806	-66.3672	-65.6319	
50.0000	-66.4169	-66.8236	-69.8193	-70.2869	-68.2147	-69.5823	-69.1274	-71.7125	-71.5245	-69.2050	-68.9100	-70.2198	-68.9149	-68.4362	-68.3216	-68.2195	-68.9865	-66.4427	-67.2049	-66.7712	-67.8269	-68.1302	-66.7415	-68.0265	-68.0358	-67.6564	-68.2163	-68.4794	-69.5417	-67.7584	-70.7118	-68.3577	-67.6805	-69.4900	-69.7069	-68.2710	-66.9197	-65.9461	-65.8545	-65.8358	-66.3537	-65.5663	-64.6923	-66.4303	-65.1909	-65.8421	-66.0070	-66.1971	-65.9172	-66.2550	-66.1100	-67.9001	-66.8501	-65.9408	-65.7591	-66.4576	-67.7483	-68.3914	-67.9172	-68.2157	-70.1694	-69.0992	-67.4749	-66.8720	-68.5694	-66.5929	-67.3399	-66.5253	-67.4995	-65.6358	-66.9548	-67.7532	-66.5243	
55.0000	-67.4072	-68.8826	-72.4193	-70.8450	-70.0705	-71.2105	-70.7553	-75.7636	-75.2490	-72.9362	-70.6531	-71.9148	-68.2422	-68.9565	-69.6828	-67.5259	-67.4550	-67.8749	-68.5771	-67.2803	-67.6483	-69.5199	-67.7020	-67.7154	-68.0424	-68.9127	-68.8769	-68.7151	-69.9037	-68.6817	-71.6388	-68.4519	-68.9938	-70.7613	-70.2468	-68.6929	-67.2748	-66.6767	-66.4550	-66.6209	-67.0866	-65.8016	-65.8368	-67.4028	-65.5933	-67.1228	-67.2852	-66.7833	-67.1656	-67.9651	-66.7893	-67.7960	-66.9419	-67.7404	-67.8881	-66.3438	-68.5423	-70.8410	-69.9800	-67.3256	-69.0528	-70.3280	-70.8199	-68.3565	-68.1757	-69.1265	-67.4777	-68.7453	-67.5733	-66.6775	-68.8051	-68.2166	-67.3916	
60.0000	-68.6142	-69.0473	-72.1776	-74.3188	-71.8595	-72.2374	-71.7180	-73.0843	-75.8941	-75.5728	-73.0816	-70.6101	-72.7337	-70.0967	-70.1825	-69.1982	-69.4668	-67.0986	-67.8644	-68.0403	-69.1837	-68.0624	-69.2014	-68.1982	-69.8173	-68.6838	-69.3641	-69.8632	-70.3613	-69.8208	-71.4681	-71.2562	-69.2332	-71.1546	-71.8162	-70.3789	-68.8275	-68.0067	-67.4910	-67.3879	-68.1406	-67.2570	-66.2885	-68.1723	-66.9422	-67.4579	-67.8540	-68.5444	-67.5992	-68.8178	-67.7142	-69.8456	-68.9511	-68.2082	-67.1876	-68.0825	-69.1171	-71.0092	-69.8335	-71.8104	-72.4659	-72.6532	-69.7993	-69.6774	-72.1853	-69.2355	-69.8705	-69.2853	-70.2271	-68.0166	-69.1556	-69.8893	-68.5856	
65.0000	-70.0104	-71.5343	-76.3453	-75.3471	-73.4988	-74.1897	-72.4144	-74.4282	-74.1450	-74.4434	-71.7550	-70.6417	-70.4548	-70.2107	-71.9683	-70.4660	-69.9279	-68.1915	-69.3302	-68.9840	-70.7762	-69.8982	-71.4990	-68.7304	-70.3479	-70.2614	-70.9394	-70.4886	-71.9525	-70.8264	-73.6620	-71.4840	-70.8939	-72.8027	-73.0297	-71.3258	-69.6555	-69.1029	-68.5971	-68.9574	-69.6526	-67.8531	-67.8944	-69.7426	-67.9094	-69.2434	-69.4351	-69.4676	-69.3381	-70.7007	-68.8671	-69.8614	-68.6320	-70.3699	-69.3008	-68.8188	-70.1541	-74.0478	-72.1211	-70.4321	-72.6622	-73.8648	-75.0070	-70.9682	-72.0981	-72.7463	-70.2335	-72.6076	-70.8414	-69.7275	-71.5667	-70.9219	-70.0003	
70.0000	-71.5588	-72.2077	-76.1550	-79.5016	-75.9962	-75.9727	-74.8208	-74.9893	-75.1633	-75.1164	-74.6742	-71.7598	-72.8565	-71.7608	-70.5397	-72.9777	-72.0315	-71.2636	-69.2173	-69.4947	-70.6670	-72.6093	-71.7789	-72.0061	-71.7806	-71.1003	-71.8339	-72.7751	-72.2450	-73.2631	-73.3493	-75.4048	-72.1688	-73.3607	-74.6202	-73.9373	-71.8070	-70.8064	-70.2214	-70.1703	-71.3798	-70.0857	-68.9716	-71.1955	-69.8661	-70.6428	-70.3928	-71.8781	-70.3970	-72.1599	-70.6027	-72.6217	-71.9378	-70.4975	-70.2016	-70.1006	-73.0742	-74.0835	-73.8128	-76.1690	-75.8477	-77.3609	-73.0259	-73.7481	-75.9119	-74.3861	-73.4283	-73.3614	-74.8143	-72.3216	-73.2542	-73.6549	-71.5182	
75.0000	-73.8267	-75.9295	-81.7494	-81.3688	-78.2095	-79.4759	-77.6562	-79.7024	-77.5773	-77.5517	-76.8242	-75.5922	-74.6447	-73.2096	-72.1625	-74.2794	-71.8350	-73.0213	-72.5126	-73.2040	-72.8045	-75.5680	-75.3306	-72.9774	-74.0291	-73.3079	-74.7300	-74.2396	-74.8328	-75.3179	-76.5381	-76.5054	-74.3952	-75.3646	-77.1628	-74.9872	-73.2802	-72.5340	-71.9111	-72.9684	-73.9162	-71.1148	-71.1793	-73.8943	-71.5803	-73.4519	-72.8480	-73.9506	-72.7258	-75.7642	-72.7566	-73.7071	-72.7886	-73.8658	-71.8363	-71.5392	-74.8392	-77.1114	-76.2643	-75.8424	-77.2098	-78.9416	-80.7867	-75.7200	-77.7327	-80.7888	-75.0445	-79.0082	-77.3332	-75.6531	-77.2707	-75.1927	-73.9876	
80.0000	-76.9652	-78.2261	-82.7617	-90.3945	-82.1022	-83.1214	-82.8302	-85.8045	-85.1573	-81.6619	-81.9806	-79.4866	-80.9517	-78.3637	-77.5039	-79.8496	-79.3282	-72.8170	-73.1263	-74.1678	-75.7543	-75.2749	-78.6308	-79.8533	-76.8521	-76.4150	-75.7739	-79.4606	-76.6344	-79.6360	-78.4482	-81.8290	-77.3403	-77.1511	-79.2565	-79.0795	-76.5953	-75.7840	-74.7416	-75.1970	-77.5451	-74.9027	-72.6598	-76.5760	-74.3849	-75.8995	-74.8139	-77.1507	-74.8294	-78.0901	-76.4502	-78.3040	-77.9930	-77.2647	-76.3243	-73.4561	-79.5981	-84.9167	-80.5207	-81.3988	-81.8905	-87.0909	-79.1059	-79.8034	-86.9922	-83.9468	-81.1581	-82.9838	-86.2614	-81.5221	-83.1457	-80.0547	-77.3080	
85.0000	-82.9643	-86.3145	-87.7287	-90.1089	-82.2706	-84.1827	-86.8542	-98.0775	-89.6110	-87.9119	-88.2198	-87.0856	-86.1236	-80.2185	-79.8046	-92.5372	-79.0800	-75.8407	-77.0981	-81.1453	-80.3792	-81.9365	-83.2785	-83.5432	-80.3630	-81.1018	-80.3407	-84.1210	-81.5140	-84.2994	-83.2001	-86.7916	-80.5446	-80.5002	-85.0459	-81.7755	-80.8065	-79.3388	-77.8929	-81.5425	-83.2892	-77.2331	-76.6850	-81.5849	-78.3505	-80.9641	-79.1098	-82.1032	-79.4494	-87.2526	-85.2313	-81.9693	-79.1692	-82.1401	-78.2492	-76.2657	-83.5948	-83.5390	-84.3471	-87.3037	-91.9967	-87.1005	-95.8630	-84.2295	-96.1741	-91.1350	-91.2414	-100.5047	-92.8362	-88.4351	-90.0575	-83.6824	-82.5828	
90.0000	-90.5373	-104.4719	-88.0245	-89.4640	-79.6000	-78.7113	-82.3879	-85.3207	-83.5863	-91.7556	-90.9244	-89.5855	-85.8968	-80.6390	-92.7429	-81.6322	-80.1730	-83.8495	-80.1511	-80.9300	-87.7124	-82.4041	-86.1746	-92.7245	-89.6178	-91.1193	-87.3075	-92.3091	-87.9124	-101.7835	-91.4689	-92.3604	-86.6909	-85.9278	-87.4222	-97.7966	-89.1040	-87.7642	-84.8978	-89.2442	-98.3675	-88.3447	-80.9788	-89.2980	-87.3825	-88.9818	-88.1230	-88.5658	-87.0441	-88.3935	-99.6073	-86.9705	-97.7317	-81.6502	-92.9887	-81.8539	-84.7702	-80.8090	-90.2693	-91.1867	-95.0473	-85.1861	-94.1653	-88.8220	-81.8839	-82.7103	-86.7488	-81.3025	-82.7678	-80.0118	-82.0094	-83.6398	-89.1875	
95.0000	-82.0290	-83.6139	-84.1784	-81.4197	-75.3154	-76.8190	-79.2416	-79.1844	-78.9614	-78.6604	-78.1434	-78.1211	-75.0390	-84.5646	-99.5147	-84.0068	-79.9820	-88.2065	-87.1958	-85.3748	-84.3764	-77.4159	-84.2051	-80.7523	-84.9155	-85.0155	-91.1381	-83.4592	-93.1133	-83.2576	-89.2294	-82.4297	-90.1178	-96.9909	-86.1168	-85.7549	-89.5082	-86.7339	-93.1860	-84.3466	-82.8159	-93.5526	-86.0411	-88.2308	-90.2789	-85.9735	-93.2706	-85.1058	-83.2431	-81.0878	-79.2781	-82.8099	-81.6127	-78.9509	-100.1653	-79.1055	-82.2763	-78.8486	-81.6861	-79.6691	-79.3166	-83.2860	-79.0388	-83.9804	-78.1422	-76.8545	-77.3528	-77.2320	-75.7507	-75.6685	-77.2321	-80.1269	-82.5871	
100.0000	-76.7781	-77.1412	-80.5144	-80.9112	-74.0596	-73.7945	-76.4759	-77.1393	-74.7493	-74.7647	-74.4371	-73.3477	-72.0048	-72.9080	-76.7856	-77.1252	-76.6160	-84.2586	-82.7887	-79.7305	-79.1313	-81.9603	-75.2012	-74.7480	-78.4257	-79.3897	-79.9169	-78.0513	-80.5020	-78.5350	-82.2039	-77.8073	-81.5061	-85.6846	-84.5601	-79.2875	-81.0422	-79.0157	-80.6816	-79.1469	-76.5054	-79.5866	-80.6324	-78.9803	-79.6720	-79.1065	-79.4924	-80.1866	-79.5270	-76.1143	-76.7329	-76.8768	-79.4406	-74.1932	-75.3861	-77.1711	-74.4374	-73.0476	-77.4119	-77.7972	-82.6510	-76.4852	-77.7275	-78.6750	-74.5536	-73.9715	-75.4689	-72.5736	-73.9269	-71.8750	-73.6923	-75.5295	-76.9267	
105.0000	-73.6068	-75.3383	-79.6369	-75.2542	-71.4493	-73.7168	-74.2280	-74.5463	-72.8280	-72.3257	-71.0804	-70.9019	-68.4303	-73.0392	-75.7931	-73.8000	-74.9455	-79.6346	-75.7140	-73.2494	-73.4788	-73.9799	-73.6434	-72.9218	-74.7222	-74.9971	-77.4546	-73.7544	-78.7128	-74.8036	-78.3257	-75.4117	-78.5494	-83.9788	-77.7029	-76.1834	-75.8955	-74.5683	-76.0609	-74.0960	-73.8752	-75.5724	-74.9940	-75.2227	-75.0878	-74.6953	-75.9215	-74.3894	-74.3401	-73.9187	-72.0880	-72.8067	-73.4705	-73.9721	-77.4229	-72.9064	-73.8751	-73.7842	-75.8029	-73.1137	-73.0710	-77.3639	-73.7929	-74.9494	-72.4538	-71.8282	-70.6708	-71.4500	-70.0588	-70.0726	-72.4032	-73.3838	-73.6367	
110.0000	-71.2992	-71.9895	-76.2108	-75.4400	-71.0523	-71.7762	-73.5338	-73.2390	-71.4611	-71.4130	-70.5197	-69.2497	-67.9813	-68.4661	-70.2274	-69.7570	-73.2167	-76.4812	-76.5798	-72.1081	-71.5338	-73.1617	-71.1143	-70.4313	-72.0377	-73.2976	-73.3115	-72.6210	-74.7205	-72.6581	-76.1778	-73.1726	-75.3187	-77.2357	-77.8950	-74.0009	-73.6790	-72.0194	-72.8288	-72.2504	-71.2136	-72.1050	-71.9765	-72.0948	-72.3568	-72.2603	-71.9418	-73.3110	-72.0339	-71.1768	-71.7877	-72.1665	-72.1819	-69.8529	-70.6925	-71.5830	-70.4171	-69.5419	-72.3268	-72.6794	-75.5312	-73.2133	-72.4392	-72.8177	-70.9452	-69.4819	-70.8752	-68.6021	-69.7574	-68.0546	-69.8410	-71.6499	-71.4622	
115.0000	-69.4915	-71.5941	-75.9588	-71.6246	-69.4672	-73.5276	-72.4217	-73.4478	-71.2636	-70.6711	-68.8667	-68.4906	-66.7431	-70.5330	-70.1100	-68.7706	-70.6269	-73.7057	-72.8322	-68.4218	-69.8182	-70.3496	-70.1389	-69.9591	-70.2350	-71.3182	-72.6268	-70.5370	-73.5631	-71.4957	-73.2878	-72.1427	-73.3232	-77.1056	-72.8782	-72.0311	-70.8217	-70.0685	-70.7822	-69.7881	-69.7874	-69.7790	-69.5070	-70.3909	-69.9397	-70.1691	-70.7708	-69.9240	-69.7864	-70.4505	-69.0197	-68.7552	-69.6301	-70.6199	-72.3754	-69.3326	-70.0099	-72.7335	-71.5707	-69.7537	-69.2692	-72.3953	-70.8871	-70.4762	-68.6422	-69.1909	-67.2253	-68.7290	-67.0995	-67.1300	-69.6901	-70.0742	-69.4406	
120.0000	-68.2725	-68.8851	-72.9170	-71.9840	-68.5333	-71.6265	-72.6134	-73.2082	-70.7177	-70.6627	-69.2961	-68.0978	-67.5945	-68.0881	-67.3227	-67.1186	-69.5119	-70.4878	-72.9075	-68.1604	-69.4837	-68.9926	-68.3662	-68.6270	-68.8321	-70.3466	-70.1877	-69.6932	-72.0147	-69.8644	-73.0566	-70.3971	-71.4578	-73.6329	-73.3188	-70.5258	-69.9464	-68.5534	-68.9292	-68.7113	-68.4426	-68.5580	-67.7630	-68.4243	-68.3343	-68.4966	-68.2620	-69.3996	-68.4616	-68.2542	-68.5887	-69.2579	-69.4026	-67.3833	-67.6320	-68.4572	-67.9599	-68.1116	-68.7303	-69.3157	-71.4970	-70.4134	-69.5521	-68.8403	-68.1123	-66.9687	-67.5136	-66.5149	-67.0991	-65.5967	-67.7281	-69.0936	-68.3575	
125.0000	-66.8911	-69.1632	-73.4341	-68.6725	-67.9577	-73.0445	-71.0759	-72.5697	-69.4961	-68.9010	-67.6030	-68.2625	-66.9600	-68.7054	-68.8704	-67.2113	-66.5674	-71.4132	-68.7679	-67.9098	-66.5087	-68.6519	-68.0057	-67.6800	-68.8060	-68.8273	-69.8924	-69.1538	-69.8201	-70.6105	-70.2114	-70.2020	-70.4121	-73.3983	-70.2689	-69.1288	-67.8543	-67.1694	-67.6436	-67.4631	-67.4580	-66.7293	-66.2964	-67.2998	-66.7084	-67.0188	-67.6384	-67.1076	-67.5723	-68.0719	-66.8150	-66.3798	-66.9804	-67.8934	-69.2692	-66.6106	-67.9089	-70.9353	-70.2015	-66.7264	-66.7623	-69.0697	-67.9111	-67.9342	-66.1052	-66.6203	-65.2107	-66.6064	-65.0708	-65.1608	-67.7679	-67.7669	-66.9012	
130.0000	-66.1936	-66.8896	-71.2369	-70.0251	-66.3908	-70.1407	-69.8703	-71.4590	-67.6486	-67.9082	-67.3738	-67.7108	-67.5746	-67.1239	-66.1488	-65.8831	-66.9635	-68.7962	-68.8491	-67.6576	-67.2372	-68.4936	-66.7426	-67.0638	-68.3600	-68.1210	-69.1049	-68.6448	-69.6328	-69.2879	-70.1587	-69.4839	-69.0152	-71.3686	-70.3551	-68.2824	-67.4159	-66.3706	-66.4226	-66.5442	-66.6271	-66.1745	-65.1218	-66.0475	-65.7122	-65.8392	-65.8993	-66.9583	-66.5735	-66.4556	-66.1587	-67.6255	-68.4751	-65.7367	-66.0520	-65.6967	-66.9768	-66.7554	-66.5083	-66.8313	-68.4290	-68.3376	-66.8014	-66.4434	-65.9373	-65.0264	-65.2564	-64.7617	-65.2772	-63.9096	-66.4139	-67.4763	-66.2660	
135.0000	-65.2838	-67.5065	-71.9371	-67.0885	-66.2820	-70.0920	-67.6402	-68.8669	-66.5021	-67.0408	-67.2127	-68.3034	-65.8721	-67.1468	-68.9822	-65.3072	-65.6759	-69.0518	-68.6701	-66.2851	-66.8351	-66.8105	-68.0583	-67.4221	-67.1771	-69.4439	-67.8398	-69.0935	-68.7440	-69.3035	-69.1042	-68.3852	-68.5888	-70.6071	-68.3174	-67.0376	-65.9600	-65.3174	-65.6605	-65.7765	-65.9657	-64.8116	-64.4801	-65.4633	-64.6898	-65.2204	-66.0449	-65.3730	-65.7943	-66.0896	-65.5355	-65.3465	-65.0566	-66.5591	-66.9182	-65.2205	-66.1209	-69.9908	-67.7729	-65.1838	-64.5566	-66.7010	-65.8991	-65.6545	-64.5752	-64.4326	-63.9990	-64.8075	-63.7277	-64.1526	-66.9049	-66.3536	-65.2852	
140.0000	-64.9322	-65.5663	-69.8889	-68.7181	-65.0579	-68.2798	-66.2398	-68.4831	-66.0275	-67.5406	-68.0439	-67.9513	-66.5145	-66.7769	-66.1888	-64.4809	-67.8313	-68.0886	-68.8007	-66.7680	-68.2106	-67.0565	-67.1803	-67.0436	-67.7989	-68.9430	-67.3794	-69.3135	-68.2094	-68.9075	-68.6983	-68.5156	-67.2287	-69.6056	-68.2706	-66.6909	-65.6902	-64.8042	-64.7540	-65.0451	-65.4481	-64.9209	-63.7834	-64.8637	-64.3019	-64.6143	-64.7655	-65.2132	-64.8659	-64.3909	-64.9422	-66.1061	-66.9654	-64.9502	-64.4713	-64.4110	-65.4269	-65.9135	-64.2058	-64.3944	-66.0311	-66.6080	-65.1759	-64.4477	-64.5833	-63.4349	-64.2133	-63.3148	-64.2341	-63.0037	-65.7565	-66.5013	-64.9077	
145.0000	-64.1728	-66.5931	-70.8779	-65.9460	-65.1696	-67.3818	-65.3871	-67.9632	-66.9121	-67.8428	-67.8800	-67.4112	-65.5691	-68.2885	-68.0729	-66.3985	-66.1920	-70.1914	-68.9314	-67.3975	-66.0275	-68.2660	-68.0626	-68.1493	-67.5170	-68.4795	-68.8186	-67.7521	-69.2804	-67.5151	-68.9830	-66.6404	-67.3861	-68.5251	-66.8335	-65.4743	-64.6274	-64.0586	-64.2761	-64.6720	-64.9913	-63.8108	-63.7523	-64.6802	-63.7152	-64.1719	-64.4227	-63.6510	-64.3984	-65.2778	-64.5416	-64.0126	-63.6940	-65.0811	-65.7616	-63.8520	-64.8621	-67.4847	-66.5087	-63.5974	-63.2153	-64.5997	-64.3503	-64.3379	-63.1551	-63.8584	-62.6029	-63.7870	-62.9943	-63.6017	-66.2805	-65.4344	-64.1860	
150.0000	-64.0699	-64.5959	-69.4702	-67.7724	-64.2497	-66.8429	-63.8725	-67.2817	-66.1447	-68.0883	-68.6116	-67.0457	-66.7323	-68.5955	-65.7042	-66.4347	-68.9100	-70.8262	-69.0331	-68.2791	-67.7317	-70.0667	-67.3228	-68.1521	-68.3521	-68.6281	-68.3477	-67.9437	-68.8332	-67.2509	-68.3538	-66.9188	-66.1854	-67.9374	-66.7207	-65.4104	-64.4926	-63.6549	-63.6664	-63.9040	-64.5178	-63.9776	-63.0726	-64.3803	-63.4760	-63.6354	-63.4986	-63.9549	-64.0820	-63.7965	-63.5411	-64.6859	-65.6125	-63.8664	-63.6955	-63.0039	-64.4770	-64.5447	-62.8560	-62.6953	-64.4856	-65.2324	-63.6149	-63.4427	-63.0635	-63.2695	-62.8459	-62.6318	-63.6550	-62.6468	-65.2717	-66.1977	-64.0696	
155.0000	-63.4506	-65.7455	-69.8784	-65.1899	-64.2236	-64.8834	-63.3014	-66.3745	-67.1482	-67.6220	-66.8808	-67.1602	-67.0283	-68.9582	-71.2338	-68.8791	-68.1138	-70.4926	-70.3995	-68.3408	-68.2898	-68.2507	-70.6977	-67.6880	-68.5929	-68.2954	-69.1348	-67.2089	-68.6739	-66.4955	-67.8502	-65.4032	-66.2476	-67.0774	-65.7152	-64.3791	-63.7232	-63.2135	-63.2980	-63.8040	-64.1392	-62.9269	-62.9981	-63.7922	-62.8033	-63.4578	-63.8841	-63.0766	-63.6383	-64.4204	-63.9259	-62.8549	-62.8823	-64.6110	-64.0875	-63.0925	-63.8211	-65.7775	-65.0586	-63.0552	-62.3078	-63.3450	-63.5469	-63.4319	-62.6781	-63.3076	-61.8695	-63.4215	-62.7614	-63.2556	-66.2480	-64.9668	-63.4309	
160.0000	-63.5817	-64.1830	-68.5247	-66.8227	-63.3161	-65.1377	-62.3542	-65.5628	-65.3024	-66.5970	-66.5822	-66.8441	-68.4747	-69.2676	-68.4270	-67.3721	-70.3643	-71.1990	-69.8266	-68.3015	-70.1849	-70.1149	-69.5192	-66.9757	-69.7035	-68.0781	-68.9384	-67.0946	-68.6954	-65.7833	-67.7827	-65.4233	-65.1564	-66.5339	-65.6604	-64.4376	-63.5800	-63.0565	-62.9817	-63.2566	-63.8869	-63.1678	-62.4006	-63.8037	-62.8609	-63.5198	-63.2577	-63.4573	-63.6148	-63.5546	-62.6876	-63.6060	-64.9728	-64.2082	-62.6282	-62.4561	-63.8918	-63.6574	-62.1890	-61.7490	-64.3824	-64.0529	-63.3157	-62.9984	-62.7159	-63.0773	-62.4055	-62.2226	-63.6417	-62.4251	-65.1255	-66.1543	-63.5577	
165.0000	-63.0280	-65.2659	-68.6754	-63.9801	-63.3048	-63.8137	-62.5905	-65.1990	-65.8248	-64.8707	-66.0140	-68.8802	-66.1420	-69.2659	-72.4063	-69.2494	-67.4081	-68.6619	-69.9737	-70.4479	-68.1650	-68.5370	-68.1681	-68.8105	-66.8356	-68.9123	-67.1959	-67.0852	-66.4920	-65.8650	-66.4034	-64.2691	-65.1835	-65.9013	-64.6931	-63.5870	-63.0912	-62.6975	-62.9595	-63.3774	-63.6966	-62.5643	-62.9054	-63.7185	-63.0270	-63.6018	-63.6727	-63.0256	-63.6377	-64.0435	-63.6548	-62.6604	-62.6482	-63.9512	-63.6276	-63.1615	-63.3389	-64.7739	-65.3367	-62.9196	-61.7458	-63.5808	-63.4920	-62.9715	-62.7430	-63.6038	-61.6751	-63.5108	-62.5306	-62.9138	-66.7795	-64.7055	-63.0589	
170.0000	-63.2401	-63.7826	-67.7527	-65.1329	-62.5381	-64.3656	-62.1147	-64.8002	-64.2026	-64.3742	-66.0330	-66.8195	-66.2998	-70.9758	-67.4740	-65.5863	-66.0907	-69.4908	-68.5212	-68.2158	-67.2551	-69.0276	-66.9184	-66.9373	-66.9932	-67.8808	-66.5383	-66.2696	-66.5803	-64.9921	-66.4250	-64.1415	-64.2181	-65.5226	-64.7991	-63.5559	-63.0767	-62.7708	-62.7795	-63.2183	-63.8780	-63.2747	-62.6378	-64.3868	-63.1354	-63.8977	-63.2210	-64.1416	-64.1030	-63.6212	-62.7192	-63.6449	-65.1902	-64.2084	-62.9805	-63.2432	-63.5646	-64.0435	-62.2956	-61.4164	-64.0943	-64.8529	-63.5105	-62.9269	-63.1756	-63.8202	-62.3106	-62.8838	-63.5706	-61.8657	-65.6969	-66.2299	-63.2440	
175.0000	-62.9001	-64.9460	-67.4388	-62.9292	-62.7183	-63.5754	-62.5276	-64.5321	-65.2128	-63.9215	-65.9704	-66.9167	-65.8427	-66.0040	-67.7215	-67.6465	-65.5020	-65.7849	-66.9596	-67.4741	-66.3309	-65.0655	-67.2541	-66.3197	-66.0298	-66.2384	-65.9184	-65.4890	-65.1226	-64.9967	-64.7661	-63.4049	-64.5538	-65.1598	-63.9817	-63.0870	-62.8347	-62.6908	-63.0374	-63.7558	-64.1600	-63.2009	-63.7776	-64.0116	-63.3648	-64.1890	-64.5126	-63.7054	-64.0297	-64.9928	-65.0015	-63.0694	-63.2288	-64.7663	-65.3183	-63.2878	-64.1759	-65.2814	-66.1009	-63.3800	-62.7660	-63.7754	-64.1900	-63.7419	-63.9879	-63.4636	-62.2265	-64.4679	-61.9623	-62.7936	-67.6283	-64.7588	-62.9751	
180.0000	-63.1614	-63.7265	-66.8775	-64.1647	-61.8537	-63.6129	-61.9654	-65.1288	-64.0771	-63.5797	-67.0487	-65.2943	-64.9620	-66.1567	-64.8043	-63.6396	-63.5977	-65.8000	-65.8170	-65.0797	-64.3377	-65.4706	-66.0250	-64.3427	-65.6114	-65.2586	-65.0117	-64.5788	-64.8628	-64.0445	-64.8436	-63.2034	-63.7888	-64.8952	-64.1644	-63.0737	-62.8255	-62.7565	-63.0407	-63.7855	-64.7902	-64.1957	-63.5089	-64.6581	-63.4931	-65.1158	-64.2151	-64.9838	-65.0627	-65.4006	-63.9771	-64.7183	-66.4587	-66.6936	-64.7942	-64.0885	-65.8906	-65.3660	-63.3544	-62.9627	-65.2064	-65.5413	-64.7075	-64.4093	-64.8194	-63.6720	-63.3203	-63.7584	-62.9206	-61.8982	-66.4037	-66.3306	-63.2723	
