File name:	uwb_dipole.rff
Date:	14/03/2014 4:16
Comments:
Frequency:	3.100 GHz
Channel:	Channel1
Switch:
Beam:
4th Axis:
Tertiary:	0.000
Z axis:	Amplitude [dB]


	Roll  [deg]
Azimuth  [deg]	-180.0000	-175.0000	-170.0000	-165.0000	-160.0000	-155.0000	-150.0000	-145.0000	-140.0000	-135.0000	-130.0000	-125.0000	-120.0000	-115.0000	-110.0000	-105.0000	-100.0000	-95.0000	-90.0000	-85.0000	-80.0000	-75.0000	-70.0000	-65.0000	-60.0000	-55.0000	-50.0000	-45.0000	-40.0000	-35.0000	-30.0000	-25.0000	-20.0000	-15.0000	-10.0000	-5.0000	0.0000	5.0000	10.0000	15.0000	20.0000	25.0000	30.0000	35.0000	40.0000	45.0000	50.0000	55.0000	60.0000	65.0000	70.0000	75.0000	80.0000	85.0000	90.0000	95.0000	100.0000	105.0000	110.0000	115.0000	120.0000	125.0000	130.0000	135.0000	140.0000	145.0000	150.0000	155.0000	160.0000	165.0000	170.0000	175.0000	180.0000	
0.0000	-58.0252	-57.8329	-58.9282	-60.9203	-60.4309	-58.8642	-59.7049	-59.9388	-58.5383	-58.4134	-59.2887	-60.8195	-60.2596	-59.9464	-59.1868	-58.6193	-62.1514	-59.4222	-59.3789	-58.8830	-59.5574	-61.1525	-59.6794	-59.2724	-58.8299	-59.7257	-58.8111	-60.1375	-59.0773	-59.2065	-58.9063	-58.7367	-58.5511	-58.1205	-57.9635	-58.0075	-58.1171	-58.1699	-58.1043	-57.9661	-58.0487	-58.5821	-59.2311	-59.3060	-58.6782	-58.7322	-59.4667	-58.8912	-58.8352	-58.8119	-59.5292	-58.7407	-59.5805	-59.4976	-59.7059	-59.9601	-58.7706	-60.0884	-59.2649	-59.9930	-61.2460	-60.6642	-60.2972	-60.1275	-60.4069	-59.4226	-59.1457	-57.6456	-58.6041	-62.4631	-62.2318	-59.3732	-58.0013	
5.0000	-57.8690	-58.3422	-60.0549	-61.5602	-59.6630	-58.8724	-60.8397	-61.4230	-59.4666	-58.8189	-59.0612	-60.9864	-61.6507	-61.2531	-60.3753	-58.9711	-61.8286	-61.9914	-60.9858	-59.1902	-60.2162	-61.2093	-61.6292	-59.6349	-60.8452	-59.5816	-60.1803	-60.7519	-59.9143	-60.0832	-59.4424	-59.3052	-58.9666	-58.4429	-58.2976	-58.2266	-58.1838	-58.0676	-57.8499	-57.7402	-58.0068	-58.4736	-58.6893	-58.5388	-58.2931	-58.3091	-58.6963	-58.4320	-58.5370	-57.8020	-59.3172	-57.6373	-59.5688	-58.1478	-58.9277	-59.2452	-58.3051	-58.4964	-59.7973	-58.3413	-60.2554	-61.3516	-59.3028	-61.1398	-60.3243	-60.0682	-59.1409	-58.1573	-60.2514	-63.8258	-61.2423	-58.7782	-57.8929	
10.0000	-58.2280	-58.2266	-59.7082	-61.9758	-60.8930	-58.7662	-59.5459	-62.5972	-62.5793	-60.8592	-59.5433	-59.8423	-60.4431	-63.4811	-63.8913	-60.3525	-61.5284	-60.6617	-64.6784	-62.4835	-60.3991	-61.1194	-62.2169	-62.4166	-60.8338	-61.7769	-60.0980	-62.0685	-60.8799	-61.0007	-60.5167	-59.9863	-59.8098	-59.2712	-58.8233	-58.5280	-58.3172	-58.1702	-57.8958	-57.6958	-57.7681	-58.1132	-58.1946	-58.1510	-58.1516	-57.9324	-57.9412	-58.0348	-58.3828	-57.7347	-58.0083	-57.8665	-58.1372	-58.0171	-58.4282	-58.2525	-57.8602	-58.7231	-57.8790	-58.2750	-58.3909	-59.2449	-60.2306	-59.6669	-60.8953	-60.6551	-60.3685	-58.6378	-59.4208	-62.9606	-62.9805	-59.7848	-58.1999	
15.0000	-58.3338	-59.0524	-61.2953	-63.1702	-60.4835	-58.7267	-60.0572	-63.1140	-63.5785	-63.8604	-61.2512	-60.9838	-60.1405	-63.1548	-67.1719	-63.3423	-62.8040	-61.0756	-64.5809	-65.5457	-62.9729	-61.9401	-63.8697	-62.6739	-62.9880	-61.8217	-61.9205	-62.4836	-61.5870	-62.0230	-60.9357	-60.5382	-60.3912	-59.7590	-59.1386	-58.7498	-58.4245	-58.2014	-57.8989	-57.8101	-58.0021	-58.1246	-57.8554	-57.8757	-58.0809	-57.7166	-57.7111	-57.6147	-58.1759	-57.2936	-58.4285	-56.9634	-58.3681	-57.6614	-57.7731	-58.1084	-57.9673	-57.5839	-58.9198	-57.9170	-57.8911	-59.2639	-58.9491	-59.9658	-59.7163	-60.8971	-59.9607	-58.7740	-60.4388	-64.1003	-62.0812	-59.1866	-58.3320	
20.0000	-58.8949	-58.9566	-60.8938	-63.9920	-62.8732	-59.6135	-59.2862	-61.3115	-62.9373	-64.0902	-66.3420	-64.7376	-61.9481	-61.6297	-63.0750	-66.3868	-69.7620	-63.4566	-63.4746	-64.7829	-66.6565	-65.0856	-63.3532	-65.8042	-64.5158	-64.6018	-62.0578	-64.1923	-62.3309	-62.7582	-62.3142	-61.2498	-61.2055	-60.7559	-59.9238	-59.2223	-58.8228	-58.4809	-58.2021	-58.0373	-58.0977	-58.2330	-58.0013	-57.7147	-58.0309	-57.8798	-57.7611	-57.5965	-57.8326	-57.5797	-57.6068	-57.7554	-57.5706	-57.2181	-58.5794	-57.6005	-57.3359	-58.8598	-57.1009	-58.4536	-58.7063	-57.7104	-58.9168	-59.0752	-59.3800	-59.4274	-60.6860	-59.1099	-59.3819	-62.5354	-63.6741	-60.6376	-58.8981	
25.0000	-59.1253	-59.9335	-62.6706	-65.8427	-62.5718	-60.1189	-60.5588	-62.1892	-61.8013	-63.7271	-66.3463	-70.6966	-64.6828	-64.2501	-63.8070	-63.9588	-72.7588	-67.1217	-65.6377	-66.4039	-67.4136	-66.9945	-65.6314	-65.1038	-67.8482	-64.8477	-63.9236	-64.8661	-63.3109	-63.7725	-62.4158	-61.8702	-61.7917	-61.0851	-60.1982	-59.5411	-59.0973	-58.7537	-58.3861	-58.2860	-58.3340	-58.2958	-57.8537	-57.9104	-58.2045	-57.8528	-57.8797	-57.6381	-58.1535	-57.3817	-58.1801	-57.5456	-58.2033	-57.1705	-57.9606	-58.5886	-57.5699	-57.6254	-58.4642	-57.7645	-58.7944	-58.7816	-58.3680	-59.6945	-59.0993	-59.5278	-60.1308	-58.8760	-60.0764	-63.4194	-62.7358	-60.1460	-59.1442	
30.0000	-59.7832	-59.7900	-61.7233	-66.2282	-65.9819	-62.1606	-61.3622	-62.8058	-62.6982	-61.9207	-63.6605	-64.8708	-70.5304	-68.8353	-67.9548	-65.1384	-64.3384	-71.7697	-68.7311	-66.9947	-68.6718	-68.8748	-68.3779	-66.9920	-64.7541	-70.9691	-65.4777	-66.9339	-64.9020	-64.8670	-64.0134	-62.6238	-62.4995	-62.1781	-61.2586	-60.3559	-59.7745	-59.3102	-58.8109	-58.5642	-58.5688	-58.6156	-58.2207	-57.9269	-58.3139	-58.2016	-58.0966	-57.9212	-58.1690	-58.1849	-58.0058	-58.1222	-58.6077	-57.6722	-58.4831	-57.9196	-58.2546	-59.5239	-57.3060	-58.4205	-58.6429	-58.3064	-59.6707	-58.9159	-60.0731	-59.4526	-60.1604	-59.1137	-59.0966	-61.7059	-63.8891	-61.5057	-59.7328	
35.0000	-60.0186	-60.7848	-63.6230	-68.0165	-65.6363	-62.6346	-62.9203	-64.9264	-64.0048	-63.3474	-63.1736	-66.2239	-67.0513	-68.4632	-71.1118	-67.5863	-65.7101	-70.6098	-70.3249	-66.3811	-69.4883	-70.0187	-70.8147	-67.2809	-65.9098	-69.5407	-68.0121	-67.8761	-65.9677	-66.5156	-64.2058	-63.1361	-63.2117	-62.5648	-61.3922	-60.5894	-60.1309	-59.6077	-59.0141	-58.8230	-58.9167	-58.8253	-58.3150	-58.2766	-58.5797	-58.4690	-58.5852	-58.2535	-58.7398	-58.3130	-58.7287	-58.4132	-59.2954	-58.3080	-58.3841	-58.8704	-58.5105	-59.0298	-58.9067	-58.5217	-58.7994	-58.8089	-59.6761	-59.7380	-60.2225	-60.6596	-60.5020	-58.9927	-59.7406	-62.8058	-63.5114	-61.2068	-60.0233	
40.0000	-60.9345	-60.7159	-62.3590	-66.5753	-68.0581	-63.8158	-62.5434	-64.3895	-66.8545	-65.5627	-65.3898	-64.3698	-68.8232	-67.0422	-66.3484	-69.3391	-67.2622	-66.6718	-70.7516	-70.0059	-66.3796	-68.7287	-69.3210	-72.4608	-67.7163	-68.8508	-67.7743	-71.5664	-67.1049	-67.9246	-66.9572	-64.3134	-63.9325	-63.7955	-62.6193	-61.5191	-61.0117	-60.4474	-59.6363	-59.2269	-59.2333	-59.3857	-58.9908	-58.6272	-58.8788	-58.9133	-59.1293	-59.0675	-59.1622	-59.4025	-58.8809	-59.1662	-59.9010	-58.8357	-60.2059	-59.1447	-58.4622	-61.1133	-58.8302	-59.4635	-60.3220	-58.2826	-60.3616	-59.9028	-60.2817	-60.9659	-62.3118	-60.0776	-59.4452	-61.3895	-64.0174	-62.8524	-60.9321	
45.0000	-61.3321	-61.5435	-63.7468	-67.6143	-66.1750	-62.7919	-62.3157	-64.6387	-66.7795	-67.3694	-66.1317	-66.5758	-69.3579	-71.9339	-66.8355	-67.9576	-66.0278	-65.0474	-68.1852	-73.0667	-67.4442	-69.1634	-68.8387	-71.3890	-70.4546	-68.5141	-68.1588	-72.3023	-67.4830	-69.9174	-67.3896	-65.1794	-64.8783	-64.0935	-62.8975	-62.1839	-61.5926	-60.6193	-59.8622	-59.6791	-59.8988	-59.9480	-59.4251	-59.2534	-59.4654	-59.5234	-59.8022	-59.7143	-60.2924	-60.2606	-59.6335	-59.6391	-60.8840	-59.6481	-60.4312	-61.0302	-58.8596	-60.7077	-60.6065	-59.7677	-61.1369	-59.4401	-60.7141	-60.6385	-60.3720	-61.9962	-63.4520	-60.4589	-60.3819	-62.6722	-64.2818	-62.7894	-61.3122	
50.0000	-62.6590	-61.7130	-62.6601	-65.6088	-66.7254	-63.4078	-61.6831	-62.8304	-64.9210	-66.0101	-67.2980	-64.6408	-66.7383	-67.0101	-74.5470	-71.1431	-67.7368	-65.8051	-63.6967	-68.6822	-71.2992	-68.5364	-70.3196	-70.5020	-69.0457	-74.6384	-67.1153	-72.0378	-69.8541	-68.6780	-71.1643	-67.6177	-65.9522	-65.4762	-64.3176	-63.3725	-62.8273	-61.7524	-60.7083	-60.3579	-60.4852	-60.7467	-60.4344	-59.9986	-59.9873	-60.1473	-60.3969	-60.3704	-60.5543	-61.6839	-61.3538	-60.5285	-61.4414	-60.8260	-61.5581	-61.6893	-60.7266	-61.9573	-60.5597	-61.2887	-61.9862	-60.4419	-61.6654	-61.3749	-61.3835	-60.9187	-64.2978	-63.1838	-61.1413	-62.0039	-64.4038	-64.3899	-62.5575	
55.0000	-62.9612	-62.2373	-63.6777	-66.5921	-65.2446	-62.4145	-62.0577	-63.4942	-64.8000	-66.1068	-65.7011	-64.9542	-63.7430	-65.3293	-68.6380	-75.1785	-70.1552	-66.5679	-65.2169	-67.9472	-69.2796	-69.2892	-71.5160	-70.9474	-69.8941	-73.1105	-67.9007	-75.5109	-69.8764	-69.9589	-71.9865	-68.4866	-67.0103	-66.0324	-64.8800	-64.2617	-63.3686	-62.1085	-61.1361	-61.1756	-61.5841	-61.7987	-61.2250	-60.7718	-60.8716	-61.2340	-61.2824	-61.1171	-61.4345	-62.6920	-62.5689	-61.9468	-62.8953	-61.9239	-62.0553	-63.8227	-61.5207	-62.4774	-62.5427	-61.7190	-63.0163	-61.4693	-62.8218	-62.9259	-61.8573	-61.9054	-66.0056	-63.9615	-62.4146	-63.5406	-65.3617	-64.8545	-62.9513	
60.0000	-64.6418	-62.9075	-63.0833	-65.6282	-66.5966	-63.8211	-62.7826	-63.8199	-65.2879	-66.2985	-67.3046	-65.9490	-65.3214	-63.3569	-65.2443	-67.2257	-70.3432	-71.9733	-66.9283	-69.6452	-68.4170	-67.7171	-70.1236	-73.9186	-70.1503	-75.9283	-69.9598	-71.7579	-74.7692	-70.1005	-72.3422	-72.5898	-68.9863	-67.7673	-66.4468	-65.8206	-65.1537	-63.5857	-62.2626	-62.0839	-62.5271	-63.1580	-62.9044	-62.1807	-61.8305	-62.3814	-62.7088	-62.4813	-62.1715	-62.9382	-63.8422	-63.6521	-64.4260	-63.5160	-64.2301	-63.6783	-63.3332	-65.2796	-62.4765	-63.8587	-64.4132	-62.4294	-63.7621	-64.2003	-64.5073	-62.2483	-64.3511	-66.9510	-64.5517	-64.2024	-65.4644	-66.5702	-64.6504	
65.0000	-64.8313	-63.2849	-64.4429	-67.4030	-66.2930	-64.5821	-64.9813	-66.4847	-67.8349	-69.2372	-69.5856	-70.0384	-66.1037	-66.5392	-65.2206	-68.7971	-68.8491	-68.3399	-69.1879	-72.2888	-69.8185	-69.1068	-70.7811	-74.0139	-72.7562	-78.0737	-70.5057	-74.2483	-74.4689	-70.7215	-74.3705	-73.9215	-70.4788	-68.5713	-67.1671	-67.2554	-65.8818	-63.9358	-63.0632	-63.4173	-64.3423	-64.9031	-64.5081	-63.4717	-63.2522	-64.4012	-64.2260	-64.1379	-63.7344	-64.4269	-64.8799	-65.2209	-66.7068	-65.1358	-65.7705	-66.6575	-63.9736	-66.7144	-64.6953	-64.6362	-66.5270	-63.5564	-65.0221	-66.5306	-65.4817	-63.5984	-66.5598	-68.0075	-66.1882	-65.9762	-67.2996	-67.7451	-64.8979	
70.0000	-67.7276	-64.5084	-64.3317	-67.3796	-68.5065	-67.2793	-67.4708	-68.9169	-70.3381	-72.0004	-72.7223	-73.5972	-73.5375	-70.8864	-69.7780	-70.8228	-69.0574	-69.6184	-66.1758	-72.1798	-74.3040	-70.0184	-74.7341	-72.0276	-73.0007	-82.1709	-73.2550	-72.9257	-79.8754	-73.4016	-72.6038	-79.3717	-74.8345	-71.2279	-69.1541	-68.8923	-68.3927	-66.2131	-64.6623	-64.5724	-65.5872	-66.8116	-67.2075	-66.3279	-64.8331	-65.8119	-66.9540	-66.4760	-66.4408	-66.1773	-66.5098	-66.4660	-68.0446	-68.3991	-67.9603	-67.7647	-66.9522	-68.8658	-66.4278	-66.1664	-68.6422	-66.5785	-65.8342	-66.9043	-69.8142	-66.0806	-66.1724	-69.1722	-69.5671	-68.0558	-68.1979	-70.4610	-67.6095	
75.0000	-68.1270	-65.2325	-66.3746	-69.6781	-70.2648	-71.3486	-72.1383	-72.2882	-72.4035	-72.4073	-71.5734	-72.3219	-72.4289	-74.0748	-75.4370	-75.8958	-74.4480	-69.7203	-69.5940	-72.1488	-72.6796	-71.9455	-79.0977	-72.5646	-74.6651	-85.0091	-74.0527	-76.3899	-83.4551	-73.7133	-75.2521	-87.4151	-76.3207	-72.3805	-71.0327	-71.6032	-70.1303	-67.7738	-66.6653	-67.0311	-68.5423	-70.0575	-70.6325	-68.4613	-67.0427	-69.2558	-69.2481	-70.2024	-69.1880	-69.7081	-68.6537	-69.2744	-71.9034	-71.1027	-70.6823	-71.1551	-68.2396	-72.7566	-68.8944	-67.5048	-73.1513	-68.7688	-67.5940	-70.2279	-72.0294	-68.4845	-69.0476	-71.9771	-72.8266	-70.1276	-71.2208	-74.1425	-68.0916	
80.0000	-72.6351	-67.2901	-66.9915	-69.3696	-72.3105	-77.1928	-78.4763	-73.9035	-71.3586	-71.3885	-69.5694	-69.4928	-70.1929	-70.0538	-72.6159	-79.9325	-76.3063	-90.7245	-76.2976	-74.6024	-74.0163	-69.5365	-79.1923	-76.8938	-73.5483	-81.7454	-77.5082	-77.3096	-82.5469	-79.1640	-74.4678	-83.2402	-83.5497	-76.7831	-73.9031	-74.4159	-75.9375	-72.3411	-69.7019	-69.6551	-70.9444	-73.2755	-75.3766	-75.1479	-70.2986	-70.9582	-74.2737	-73.6518	-74.6958	-73.4560	-73.2169	-71.9291	-72.7542	-79.6153	-76.0854	-74.9778	-72.2216	-74.8228	-74.9897	-69.8662	-72.9975	-74.9444	-71.8900	-70.1437	-78.2965	-73.7611	-72.5266	-72.6161	-78.3190	-74.8627	-72.9463	-80.4611	-72.0076	
85.0000	-70.9142	-68.3659	-68.8873	-71.4294	-76.8895	-90.6601	-79.5467	-71.8582	-70.2853	-70.0473	-68.7836	-69.6528	-70.8699	-70.8005	-75.0777	-74.3040	-72.3916	-75.8414	-76.6516	-75.8559	-72.0985	-71.9111	-80.5466	-77.9943	-76.6198	-81.1771	-80.7876	-80.5151	-91.4616	-76.8122	-77.8986	-82.9408	-82.2536	-79.6324	-77.5707	-83.4848	-84.2943	-75.6105	-73.8072	-74.8387	-78.3852	-80.8549	-83.8354	-80.1359	-74.1007	-78.3239	-80.3730	-82.2032	-80.2242	-82.4651	-77.2503	-78.3212	-78.6207	-90.8597	-86.8838	-80.7920	-75.6241	-85.5448	-78.0405	-73.3076	-79.9873	-82.9559	-74.6326	-76.1830	-89.9744	-80.6661	-77.6442	-78.9431	-90.1906	-76.3021	-78.6187	-82.3591	-70.8197	
90.0000	-71.9869	-70.9223	-70.7039	-71.1447	-75.4427	-78.7476	-81.5952	-75.3497	-71.0785	-72.5073	-70.1246	-72.6155	-74.8982	-72.8626	-75.0222	-71.7670	-69.4630	-68.3809	-69.6046	-72.6323	-76.9765	-77.8095	-79.8845	-89.3203	-79.5422	-75.5960	-82.4352	-83.2756	-82.4336	-79.7657	-79.8426	-79.7045	-79.3772	-83.8148	-90.3242	-82.3926	-82.1490	-87.5531	-84.0039	-82.5604	-87.7215	-88.9304	-81.6655	-82.2318	-91.9052	-79.8263	-85.8545	-86.9364	-86.7313	-91.0365	-88.1756	-95.9207	-94.5631	-78.8999	-83.8838	-83.5937	-87.6351	-97.9094	-81.0678	-80.1750	-87.5208	-87.2622	-81.8044	-80.8838	-79.9370	-89.7703	-90.1251	-83.8710	-80.5829	-79.6138	-82.0108	-78.3814	-72.1255	
95.0000	-70.5468	-74.9096	-72.7073	-73.4351	-78.8651	-74.9434	-91.3761	-75.2408	-76.5454	-74.5166	-76.4042	-74.5444	-72.1262	-70.6204	-71.3770	-69.4230	-68.7773	-67.9314	-70.4929	-74.3412	-74.3607	-89.8820	-82.1219	-84.7802	-74.3088	-74.7668	-84.9768	-84.8305	-79.6170	-82.3298	-81.7931	-76.1940	-78.0213	-81.8702	-80.4389	-75.0936	-75.0836	-80.4636	-80.5838	-76.8738	-75.5451	-74.6812	-72.8854	-74.5936	-79.0370	-74.5347	-76.4948	-74.9746	-77.2932	-76.4461	-79.9681	-75.5523	-78.6065	-73.4307	-74.4809	-77.9350	-79.7680	-77.9299	-75.6068	-78.8322	-82.6856	-76.1735	-76.9595	-78.6011	-75.2032	-75.7917	-79.7536	-77.7323	-73.7086	-78.9473	-79.2855	-71.1202	-70.7189	
100.0000	-68.0190	-74.5407	-77.0935	-72.7837	-78.7230	-72.8066	-76.5565	-80.9649	-80.8199	-74.9476	-74.1308	-70.6288	-69.4902	-66.8573	-70.3046	-70.0813	-73.0319	-70.2500	-71.3327	-72.2161	-68.6668	-72.1156	-77.4376	-83.4352	-75.3059	-72.5033	-75.2103	-98.5684	-77.6138	-78.0689	-89.0877	-74.8974	-74.4720	-75.0752	-75.7538	-72.3027	-70.4665	-72.4253	-74.2243	-71.8478	-70.3879	-69.8691	-69.1944	-69.1918	-72.2570	-71.1799	-71.2323	-71.1916	-71.2862	-71.6774	-72.5709	-71.1930	-73.5871	-69.6805	-71.3572	-70.9324	-72.0762	-73.7006	-72.0079	-72.4683	-72.6472	-74.9727	-70.4591	-75.4423	-71.2947	-71.5943	-70.7819	-75.7585	-70.4113	-71.8747	-84.2353	-69.6258	-68.0172	
105.0000	-67.4082	-81.2704	-74.1929	-76.3565	-74.9440	-71.5549	-75.8318	-76.9603	-73.6126	-69.6404	-69.0664	-67.9635	-65.3559	-67.5672	-70.3154	-80.3392	-86.2806	-74.0114	-74.6957	-68.3871	-66.5770	-72.5292	-73.9772	-76.6964	-72.8585	-70.9776	-74.8495	-81.7552	-74.3828	-81.6599	-75.6049	-72.2240	-72.0274	-72.1261	-71.0237	-68.4274	-68.5089	-70.1251	-69.2812	-67.5249	-66.8710	-66.9045	-66.6192	-67.6767	-68.9364	-68.0937	-68.8983	-67.8782	-68.9843	-67.9241	-69.2654	-67.2134	-70.0409	-67.6103	-68.0723	-68.6919	-68.5488	-70.5106	-69.2952	-68.7070	-70.4557	-69.2246	-68.7845	-69.3914	-69.0218	-67.8999	-68.9467	-69.7408	-67.6796	-72.3464	-71.9292	-66.1315	-67.6537	
110.0000	-64.8381	-70.1904	-75.8035	-75.2055	-78.5653	-71.4402	-72.1244	-71.5737	-71.3123	-67.4623	-67.8797	-66.5787	-66.6202	-66.8381	-71.4949	-76.7915	-72.2686	-80.8896	-77.1657	-68.3115	-66.4385	-69.6013	-69.0059	-75.3006	-72.3309	-70.7702	-70.7208	-85.3696	-72.8779	-75.8127	-76.4732	-71.1367	-70.5255	-69.8832	-69.4183	-67.2558	-66.3938	-67.1708	-67.1235	-65.8138	-64.9192	-64.9317	-64.8481	-65.1187	-66.3489	-65.8264	-66.5833	-65.9014	-66.3367	-65.7510	-66.3608	-64.9873	-66.7744	-65.5049	-66.7227	-66.2242	-65.8574	-67.4613	-67.6905	-66.8776	-66.4367	-68.4481	-65.9745	-67.3184	-66.4573	-66.8935	-65.6643	-68.0988	-65.8188	-67.6769	-73.3134	-65.7323	-64.9161	
115.0000	-64.8009	-70.9156	-72.2773	-79.9760	-71.8993	-71.8744	-70.8079	-70.5663	-68.8864	-67.5237	-67.8256	-69.1141	-66.4991	-71.2161	-69.4760	-69.0457	-72.2647	-74.9211	-69.5176	-69.0832	-67.2731	-67.0132	-69.9464	-72.4011	-70.8690	-69.3387	-72.6625	-75.3241	-72.1183	-76.8547	-71.0148	-69.5965	-68.5710	-67.8798	-66.8795	-65.0041	-64.7855	-65.2820	-64.7244	-63.8440	-63.3579	-63.4090	-63.2064	-63.9225	-64.3702	-63.9360	-64.7010	-63.6511	-64.6525	-63.7917	-64.7932	-63.0939	-65.1177	-64.2696	-64.0851	-64.7970	-64.2923	-65.7407	-65.4233	-64.6550	-65.2947	-65.7960	-64.4838	-64.7622	-65.1488	-64.1549	-65.2541	-65.2401	-64.3578	-69.1174	-68.1102	-63.4865	-64.8131	
120.0000	-62.6845	-66.3773	-69.2824	-73.8291	-71.4292	-69.2483	-72.4864	-71.4584	-71.3868	-69.1664	-70.0569	-69.2043	-66.9459	-67.9413	-67.0711	-69.6287	-69.7308	-72.1463	-68.7123	-70.4865	-67.5546	-65.9147	-68.1443	-71.6156	-69.7015	-70.4332	-69.9712	-76.2839	-71.0856	-73.2042	-70.8324	-68.4536	-67.2948	-66.6789	-65.8695	-64.1517	-63.3498	-63.6435	-63.6103	-62.8756	-62.2352	-62.0715	-61.8676	-62.0055	-62.7205	-62.1897	-63.0071	-62.2907	-62.7059	-62.4490	-63.0932	-61.9710	-63.3845	-62.7680	-63.4997	-62.7579	-62.5472	-64.6873	-63.6089	-63.3641	-63.2813	-64.5843	-63.0156	-63.3132	-63.5817	-63.3199	-63.0652	-64.2599	-62.8221	-65.3559	-68.5634	-63.0802	-62.6342	
125.0000	-62.5034	-66.0480	-68.1185	-72.4021	-66.8591	-68.5812	-73.3036	-74.9132	-70.8452	-69.0922	-66.9413	-66.8763	-64.3947	-68.4532	-68.6851	-67.9871	-70.0467	-67.7542	-70.5307	-69.9398	-65.6666	-67.7791	-69.3632	-69.2663	-70.2330	-69.4665	-71.1641	-72.6346	-70.2042	-71.1120	-67.9472	-66.7997	-65.7651	-65.1491	-63.9221	-62.5031	-62.3204	-62.6469	-62.1939	-61.4986	-60.9617	-60.8841	-60.6814	-61.0559	-61.2013	-61.0914	-61.7262	-60.7600	-61.7181	-61.0415	-61.9110	-60.5896	-62.4936	-62.6219	-61.0851	-61.9037	-62.1470	-62.8787	-62.3694	-61.9462	-62.4494	-63.1375	-61.3294	-62.4882	-62.4545	-61.7330	-62.7046	-62.2077	-62.2669	-66.6610	-64.6064	-61.3782	-62.7128	
130.0000	-61.0108	-63.4548	-65.3888	-69.7716	-66.5545	-64.8019	-68.8982	-72.5273	-68.6745	-66.1682	-64.8457	-65.0406	-64.8285	-68.1707	-67.5696	-66.6614	-65.9288	-69.0828	-69.8420	-69.7396	-67.3236	-67.7698	-68.1580	-68.6298	-69.4644	-70.2589	-69.0098	-72.5461	-69.1669	-69.6124	-67.7392	-65.9346	-65.0152	-64.2780	-63.3856	-62.0223	-61.4674	-61.6340	-61.3777	-60.8006	-60.1940	-60.0338	-59.8640	-59.9197	-60.3302	-59.8283	-60.7455	-60.0338	-60.5667	-60.1290	-60.4291	-59.7025	-61.3810	-61.0098	-60.7873	-60.2811	-60.7251	-62.2121	-61.1062	-61.0545	-61.1837	-62.1208	-60.4032	-61.4097	-61.4763	-61.0720	-61.3716	-61.6418	-60.9990	-63.9166	-65.6807	-61.2551	-60.9973	
135.0000	-61.0631	-63.1183	-65.2211	-67.7722	-63.4886	-63.8473	-67.9492	-67.2570	-64.9018	-63.7902	-63.9058	-66.0500	-66.0733	-67.3370	-64.7075	-64.6913	-70.5131	-68.0341	-69.4702	-71.0362	-67.2988	-68.6079	-67.4755	-70.2313	-69.1394	-69.2526	-68.8669	-70.0678	-67.5982	-67.5612	-65.6521	-64.5149	-63.7627	-62.9645	-61.8462	-60.9127	-60.6739	-60.6430	-60.2015	-59.7276	-59.4376	-59.3595	-59.1106	-59.4102	-59.3400	-59.2699	-59.9366	-59.0559	-59.8515	-58.7333	-59.7170	-59.3021	-61.0200	-60.2524	-58.7091	-60.6306	-60.3317	-60.3265	-60.4884	-60.1694	-60.7359	-60.5839	-59.7901	-61.1303	-60.1595	-60.3293	-61.0461	-60.2300	-61.2887	-65.3058	-62.4149	-60.1348	-61.1155	
140.0000	-60.0263	-61.6094	-62.8862	-66.3170	-63.7752	-61.8457	-64.5063	-66.3064	-64.3383	-63.6309	-63.9559	-65.3533	-64.6559	-64.9768	-63.2732	-66.0760	-68.8460	-67.6369	-69.6690	-72.5139	-67.8145	-68.3313	-66.8640	-70.1983	-67.8153	-70.4516	-66.9755	-69.5044	-66.4292	-65.9624	-65.5403	-63.8874	-63.0102	-62.4141	-61.4404	-60.4524	-60.0072	-59.9230	-59.6395	-59.2625	-58.9851	-58.9586	-58.7400	-58.7364	-58.9633	-58.4537	-59.3844	-58.4286	-58.6933	-58.1360	-58.8548	-58.8218	-60.4097	-58.8799	-58.7326	-59.2952	-59.2102	-60.3836	-59.3284	-59.3096	-60.1163	-59.8122	-59.1142	-60.4838	-59.5479	-59.5746	-60.3590	-59.9278	-60.0027	-63.1776	-63.2856	-59.9887	-60.0330	
145.0000	-60.0028	-61.2532	-62.9960	-64.9957	-61.4452	-61.4915	-64.7439	-64.8912	-64.0847	-63.7904	-63.8014	-63.9629	-62.8327	-64.2046	-65.5654	-67.1412	-69.5642	-69.6137	-74.3598	-68.1584	-67.7817	-67.0600	-67.3625	-68.8906	-67.8609	-67.3743	-66.0484	-67.2535	-64.0915	-65.0507	-63.8593	-62.5772	-61.9863	-61.2740	-60.2733	-59.5983	-59.3045	-59.1872	-58.8842	-58.6524	-58.5641	-58.5290	-58.3151	-58.4749	-58.1853	-58.1490	-58.5758	-57.5499	-58.1661	-57.5736	-59.2631	-58.4757	-59.1788	-58.5327	-57.7842	-59.4475	-59.2936	-58.7530	-58.8876	-59.4061	-59.0422	-59.1652	-59.0644	-59.6214	-58.7251	-59.5205	-59.9899	-59.2549	-60.4990	-63.8422	-61.0214	-59.2382	-60.0922	
150.0000	-59.1215	-60.1938	-61.3313	-64.2844	-62.0147	-60.0719	-62.5841	-64.3466	-63.7543	-63.2477	-62.9513	-62.8664	-63.1075	-64.6535	-65.0511	-67.8550	-68.7723	-71.7707	-72.4605	-66.8657	-67.2440	-65.7716	-66.5721	-69.5208	-65.5718	-67.9885	-63.5954	-67.0401	-63.5669	-63.3988	-64.0281	-62.0984	-61.3801	-60.8196	-59.9876	-59.3248	-58.9617	-58.8226	-58.5184	-58.3251	-58.2558	-58.3160	-58.0929	-57.9909	-57.9404	-57.4385	-58.1733	-57.2024	-57.6734	-57.5101	-58.7135	-58.0812	-58.8575	-57.6069	-57.9160	-58.7164	-58.3297	-58.8042	-57.9349	-58.9378	-58.8313	-58.6124	-58.5702	-59.2732	-58.5752	-59.0729	-59.8561	-59.0775	-59.3721	-62.3807	-61.6675	-59.1882	-59.1939	
155.0000	-59.0108	-59.8470	-61.7197	-63.5508	-60.0722	-59.5825	-62.1142	-62.1278	-62.2586	-62.1676	-62.8730	-64.1884	-64.0331	-65.1181	-67.8477	-68.4105	-72.6763	-67.3988	-66.4702	-65.5632	-64.1886	-65.9616	-67.4236	-64.8510	-66.4691	-62.8193	-63.5585	-63.9933	-61.5320	-63.0583	-61.9243	-60.9292	-60.5590	-59.8651	-59.1813	-58.7444	-58.5044	-58.3311	-58.0957	-57.9563	-58.0000	-57.9742	-57.6606	-57.5779	-57.2908	-57.2386	-57.6213	-56.9227	-58.0679	-57.4936	-58.8390	-57.4410	-58.1266	-57.6645	-57.4549	-59.1717	-57.9645	-57.4264	-59.1175	-58.4495	-58.1812	-58.8548	-58.1192	-59.0252	-58.5229	-59.4346	-59.3077	-58.4129	-60.1345	-62.6479	-60.1037	-58.6817	-59.0302	
160.0000	-58.5261	-59.1086	-60.2531	-63.2091	-60.9439	-58.4776	-59.6051	-60.3471	-60.8954	-61.9493	-63.6839	-63.6171	-63.4009	-64.6243	-67.9735	-66.9192	-67.6608	-64.3102	-64.8679	-63.0046	-63.5126	-64.7927	-64.9288	-64.5162	-63.6332	-63.1867	-61.0821	-64.4239	-60.5493	-61.4286	-61.9249	-60.4718	-60.0261	-59.5974	-59.0150	-58.5055	-58.2695	-58.1622	-57.8648	-57.7562	-57.7141	-57.8459	-57.5398	-57.2096	-57.1620	-56.9516	-57.8856	-57.1235	-57.8918	-57.5000	-58.5240	-57.2311	-58.1856	-57.0206	-58.0530	-58.9576	-57.0238	-58.3322	-58.4133	-57.9539	-58.3318	-58.5110	-57.8088	-59.0387	-58.8073	-59.1031	-59.2235	-58.2203	-58.9471	-61.7451	-60.9663	-58.8982	-58.5242	
165.0000	-58.4417	-59.0642	-60.9720	-62.7997	-58.9693	-57.5487	-58.6851	-59.3274	-61.3656	-62.6405	-62.4870	-62.3416	-63.3898	-66.7100	-64.6459	-63.0544	-64.3465	-61.1312	-62.2114	-62.7542	-62.5656	-63.9504	-63.2022	-61.6699	-63.1924	-60.0633	-62.1072	-61.2826	-59.5951	-61.6064	-60.3781	-59.5403	-59.3005	-58.8994	-58.4348	-58.1458	-57.9389	-57.8032	-57.5971	-57.4782	-57.5739	-57.5279	-57.1353	-57.1158	-57.2045	-57.5480	-57.9418	-57.0866	-58.3998	-57.5516	-58.6613	-56.7461	-57.9875	-58.0625	-57.8808	-58.2589	-58.0478	-57.9049	-58.7353	-58.2242	-58.1474	-58.4085	-58.2992	-59.7106	-58.6961	-58.8782	-58.5071	-58.0881	-59.9188	-61.8752	-59.7993	-58.4674	-58.4385	
170.0000	-58.2914	-58.5784	-59.7969	-62.6418	-60.2375	-57.1768	-57.4330	-58.4701	-60.5022	-61.1334	-60.9488	-60.6885	-62.8814	-63.5367	-61.7862	-61.8718	-62.8009	-59.1828	-62.1359	-61.1266	-61.3622	-63.0424	-60.7973	-61.3569	-60.6950	-60.3675	-59.5349	-61.7549	-58.6744	-60.2648	-60.4662	-59.0158	-58.8006	-58.6329	-58.3292	-57.9678	-57.8536	-57.7827	-57.5071	-57.4050	-57.4276	-57.5340	-57.2867	-57.2368	-57.5391	-57.6259	-58.4141	-57.2939	-58.3637	-58.0028	-58.4494	-56.8018	-58.6871	-58.0347	-58.4533	-58.8540	-57.1507	-59.0468	-58.4185	-58.2067	-58.4218	-58.4239	-58.6776	-60.0410	-58.8404	-58.3809	-58.6557	-58.1222	-58.8756	-61.1611	-60.7275	-58.8918	-58.2725	
175.0000	-58.2297	-58.8006	-60.9531	-62.4831	-58.4342	-56.7181	-57.7573	-58.9244	-60.1194	-59.5747	-59.7641	-61.5338	-61.1607	-61.0699	-61.1538	-60.1606	-59.6309	-59.7064	-60.7398	-60.1668	-61.3384	-59.9868	-60.0895	-59.5703	-60.1968	-58.5004	-60.3952	-59.1423	-58.4255	-60.4409	-58.9408	-58.3178	-58.3812	-58.1948	-57.9337	-57.7916	-57.7084	-57.6003	-57.4514	-57.3985	-57.5008	-57.5964	-57.5438	-57.8383	-58.0776	-58.3140	-58.3609	-57.7659	-59.3828	-57.6192	-58.4518	-57.7920	-59.8232	-58.8369	-58.3240	-58.4275	-58.9038	-58.6566	-59.2788	-58.5215	-58.6438	-59.9221	-59.5245	-59.6399	-57.7929	-58.6158	-59.0484	-58.3644	-59.5581	-61.4603	-60.1064	-58.6569	-58.2222	
180.0000	-58.2636	-58.4067	-59.9679	-62.9900	-60.1362	-57.1798	-57.5624	-58.4660	-59.4896	-59.2260	-59.8037	-59.7944	-60.7364	-60.2530	-59.8362	-59.2593	-59.5055	-58.4970	-60.3413	-58.7481	-60.0482	-59.2532	-58.4394	-59.6430	-58.1394	-58.9437	-58.6434	-59.8641	-57.5822	-59.4287	-59.0394	-57.8664	-57.9942	-58.0718	-57.8709	-57.7066	-57.6615	-57.6549	-57.5524	-57.4872	-57.6237	-57.9550	-58.0979	-58.2917	-58.5480	-58.4984	-59.2879	-58.3280	-59.5551	-58.2609	-58.9700	-58.7674	-61.3712	-58.7616	-59.0485	-59.4142	-58.4761	-60.8595	-58.8164	-58.7636	-60.0621	-60.2980	-59.9939	-59.5253	-57.9578	-58.7085	-60.3775	-58.8967	-58.7568	-60.9533	-61.3263	-59.3565	-58.2708	
