File Name:	uwb_dipole.rff		
			
Polarizat.	0.000	Phase	
Frequency	4.800 G	 [GHz]	
Roll  	0.000	[deg]	
Ch.	Channel1		
Beam			
Switch			
Dir	0.00	dBi	
Azimuth  [deg]	Amplitude (dB)	Phase [Deg]	
-180.0000	-63.6464	-130.6650	
-175.0000	-63.7324	-128.1942	
-170.0000	-65.6971	-120.4769	
-165.0000	-66.1856	-96.3731	
-160.0000	-64.8910	-94.1715	
-155.0000	-64.7902	-80.8520	
-150.0000	-63.4246	-91.2914	
-145.0000	-65.2166	-85.3410	
-140.0000	-66.8237	-74.2916	
-135.0000	-64.6075	-79.6507	
-130.0000	-65.4235	-65.6820	
-125.0000	-67.0017	-51.9640	
-120.0000	-67.6298	-58.0761	
-115.0000	-65.2766	-59.9916	
-110.0000	-66.2059	-43.5182	
-105.0000	-65.9096	-31.3102	
-100.0000	-67.4190	-24.1976	
-95.0000	-68.9133	-28.2602	
-90.0000	-66.4990	-17.8573	
-85.0000	-66.7793	-10.6354	
-80.0000	-66.8654	1.2609	
-75.0000	-67.5027	7.8404	
-70.0000	-67.0139	7.8175	
-65.0000	-67.1058	13.7845	
-60.0000	-66.9384	30.5892	
-55.0000	-67.5373	27.1879	
-50.0000	-66.1548	34.1934	
-45.0000	-67.2468	40.6859	
-40.0000	-65.7197	42.1089	
-35.0000	-66.7524	52.0794	
-30.0000	-65.3520	51.8615	
-25.0000	-66.0087	56.4938	
-20.0000	-64.8342	63.0993	
-15.0000	-64.3161	57.5343	
-10.0000	-65.0268	55.6898	
-5.0000	-65.6086	60.2301	
0.0000	-65.6555	64.5772	
5.0000	-65.5501	66.3337	
10.0000	-65.4938	65.9580	
15.0000	-65.0141	63.9971	
20.0000	-64.6932	65.7601	
25.0000	-65.6330	70.2710	
30.0000	-66.4895	58.6838	
35.0000	-64.8792	60.0754	
40.0000	-67.5574	59.3794	
45.0000	-65.4545	50.6284	
50.0000	-67.2894	52.1460	
55.0000	-66.5944	47.8439	
60.0000	-67.3587	39.8842	
65.0000	-66.9098	43.2427	
70.0000	-67.0159	31.8873	
75.0000	-66.8822	21.3413	
80.0000	-67.8644	14.0256	
85.0000	-67.2243	10.9398	
90.0000	-66.3939	2.2434	
95.0000	-66.1282	-2.3331	
100.0000	-67.1701	-20.7559	
105.0000	-67.6183	-19.2088	
110.0000	-66.8693	-22.3529	
115.0000	-65.9113	-34.0286	
120.0000	-65.1659	-39.8864	
125.0000	-66.4031	-57.9857	
130.0000	-67.8100	-54.0150	
135.0000	-66.8799	-50.0321	
140.0000	-65.0563	-67.2183	
145.0000	-65.5005	-75.8999	
150.0000	-66.1022	-80.5946	
155.0000	-63.2249	-87.7261	
160.0000	-64.6801	-89.0992	
165.0000	-63.6925	-95.4220	
170.0000	-66.2539	-100.1604	
175.0000	-65.8031	-127.6816	
180.0000	-63.5918	-131.0824	
			
			
			
[Side Lobes Table]
			
No.	Rel Ampl	Azimuth  [deg]	Absolute Ampl
1L	-1.83	140.00	-65.06
2L	-1.94	120.00	-65.17
3L	-2.90	95.00	-66.13
1R	-0.47	165.00	-63.69
		 	
File Name:	uwb_dipole.rff		
			
Polarizat.	0.000	Phase	
Frequency	4.800 G	 [GHz]	
Roll  	5.000	[deg]	
Ch.	Channel1		
Beam			
Switch			
Dir	0.00	dBi	
Azimuth  [deg]	Amplitude (dB)	Phase [Deg]	
-180.0000	-63.3082	-130.6110	
-175.0000	-64.4437	-129.0490	
-170.0000	-66.8617	-113.5106	
-165.0000	-65.2327	-93.8206	
-160.0000	-65.6288	-96.8247	
-155.0000	-64.4151	-83.1572	
-150.0000	-64.7601	-93.4368	
-145.0000	-65.1865	-90.1029	
-140.0000	-66.8555	-73.4833	
-135.0000	-67.1483	-75.5325	
-130.0000	-66.0715	-80.7913	
-125.0000	-66.1849	-62.5618	
-120.0000	-68.3056	-44.8720	
-115.0000	-67.9242	-54.7891	
-110.0000	-68.8302	-57.2200	
-105.0000	-67.5405	-38.5578	
-100.0000	-66.8435	-27.3127	
-95.0000	-68.5748	-21.2854	
-90.0000	-70.1829	-12.7616	
-85.0000	-68.7276	-16.2051	
-80.0000	-69.0392	-5.2660	
-75.0000	-68.3291	0.7705	
-70.0000	-68.8084	9.6044	
-65.0000	-68.2030	6.8458	
-60.0000	-68.0398	18.1639	
-55.0000	-67.8086	28.8486	
-50.0000	-67.4280	26.3476	
-45.0000	-66.9895	39.9684	
-40.0000	-66.7336	35.1951	
-35.0000	-66.4265	48.0816	
-30.0000	-66.4607	45.1357	
-25.0000	-66.3989	58.0030	
-20.0000	-64.7694	58.9200	
-15.0000	-64.6431	54.7189	
-10.0000	-65.4001	55.7277	
-5.0000	-65.6850	61.1157	
0.0000	-65.7891	65.6208	
5.0000	-65.5734	66.9091	
10.0000	-65.2181	65.2770	
15.0000	-64.6933	66.1031	
20.0000	-64.4790	70.6542	
25.0000	-66.0139	70.6042	
30.0000	-65.3913	57.7564	
35.0000	-64.7171	70.1193	
40.0000	-66.7340	58.0735	
45.0000	-65.6692	61.7412	
50.0000	-66.0780	50.2792	
55.0000	-66.0785	51.0046	
60.0000	-66.3835	43.3457	
65.0000	-66.8807	39.5409	
70.0000	-66.7761	44.0541	
75.0000	-66.2602	31.0281	
80.0000	-66.4001	21.9849	
85.0000	-66.7013	14.6037	
90.0000	-66.7657	7.3226	
95.0000	-65.7550	8.3447	
100.0000	-64.8815	-1.6539	
105.0000	-65.7102	-18.0176	
110.0000	-65.5553	-22.8272	
115.0000	-66.6814	-28.9677	
120.0000	-64.8622	-27.4588	
125.0000	-64.6970	-41.6712	
130.0000	-64.4503	-55.6722	
135.0000	-67.4122	-62.4156	
140.0000	-65.2223	-61.2126	
145.0000	-64.8431	-70.2982	
150.0000	-65.0961	-89.7065	
155.0000	-63.5213	-80.2245	
160.0000	-64.8610	-93.5411	
165.0000	-64.5349	-92.8731	
170.0000	-66.6916	-109.5972	
175.0000	-64.4892	-130.0218	
180.0000	-63.2481	-130.7580	
			
			
			
[Side Lobes Table]
			
No.	Rel Ampl	Azimuth  [deg]	Absolute Ampl
1L	-1.29	165.00	-64.53
2L	-0.27	155.00	-63.52
3L	-1.59	145.00	-64.84
		 	
File Name:	uwb_dipole.rff		
			
Polarizat.	0.000	Phase	
Frequency	4.800 G	 [GHz]	
Roll  	10.000	[deg]	
Ch.	Channel1		
Beam			
Switch			
Dir	0.00	dBi	
Azimuth  [deg]	Amplitude (dB)	Phase [Deg]	
-180.0000	-63.5368	-130.6205	
-175.0000	-63.9155	-131.1311	
-170.0000	-66.4426	-123.2705	
-165.0000	-66.6080	-97.8586	
-160.0000	-64.8680	-101.7379	
-155.0000	-66.3676	-93.1053	
-150.0000	-64.9267	-96.4613	
-145.0000	-66.0299	-87.8434	
-140.0000	-67.0045	-92.0991	
-135.0000	-67.4384	-92.2382	
-130.0000	-66.8711	-71.4219	
-125.0000	-68.7290	-68.4214	
-120.0000	-70.0368	-83.5414	
-115.0000	-68.6351	-64.9653	
-110.0000	-67.5500	-55.8876	
-105.0000	-69.2553	-54.2967	
-100.0000	-71.8718	-32.4224	
-95.0000	-70.4954	-44.2040	
-90.0000	-68.1238	-37.4923	
-85.0000	-70.0534	-26.3081	
-80.0000	-68.3447	-15.8339	
-75.0000	-71.2462	-10.9099	
-70.0000	-69.2624	-9.9503	
-65.0000	-69.5542	1.1566	
-60.0000	-68.7519	10.5171	
-55.0000	-70.8408	9.6499	
-50.0000	-67.7040	21.7983	
-45.0000	-69.2500	22.8348	
-40.0000	-66.9121	33.2442	
-35.0000	-67.5355	38.2038	
-30.0000	-66.5169	37.1817	
-25.0000	-67.4332	45.6297	
-20.0000	-65.8649	56.8341	
-15.0000	-64.9337	54.4898	
-10.0000	-65.3082	52.4922	
-5.0000	-65.8034	57.6849	
0.0000	-65.8792	64.3068	
5.0000	-65.6613	67.8465	
10.0000	-65.4272	67.7953	
15.0000	-64.7009	67.3980	
20.0000	-64.2416	70.6312	
25.0000	-65.0565	77.0290	
30.0000	-66.1501	66.2594	
35.0000	-64.1328	64.9197	
40.0000	-66.0042	70.5501	
45.0000	-64.9888	61.7772	
50.0000	-66.2580	59.1654	
55.0000	-65.7619	56.7179	
60.0000	-65.7651	52.3251	
65.0000	-66.0306	53.6924	
70.0000	-65.0472	41.2039	
75.0000	-66.3803	33.3563	
80.0000	-66.5073	28.8808	
85.0000	-66.5253	19.9883	
90.0000	-66.0125	17.2427	
95.0000	-65.2820	3.5897	
100.0000	-66.5312	-8.4852	
105.0000	-65.6808	-5.9383	
110.0000	-66.2599	-15.0086	
115.0000	-64.4573	-22.8500	
120.0000	-64.5129	-36.2408	
125.0000	-65.4976	-43.2800	
130.0000	-66.9964	-46.9767	
135.0000	-64.9054	-42.8776	
140.0000	-64.8026	-59.8099	
145.0000	-64.7583	-68.3485	
150.0000	-66.0201	-69.5805	
155.0000	-63.3514	-82.4379	
160.0000	-65.3976	-82.9124	
165.0000	-64.4109	-95.0911	
170.0000	-66.1008	-98.9590	
175.0000	-65.7363	-125.2164	
180.0000	-63.5347	-131.0693	
			
			
			
[Side Lobes Table]
			
No.	Rel Ampl	Azimuth  [deg]	Absolute Ampl
1L	-1.41	145.00	-64.76
2L	-1.11	115.00	-64.46
3L	-2.33	105.00	-65.68
1R	-1.06	165.00	-64.41
		 	
File Name:	uwb_dipole.rff		
			
Polarizat.	0.000	Phase	
Frequency	4.800 G	 [GHz]	
Roll  	15.000	[deg]	
Ch.	Channel1		
Beam			
Switch			
Dir	0.00	dBi	
Azimuth  [deg]	Amplitude (dB)	Phase [Deg]	
-180.0000	-63.4633	-130.7164	
-175.0000	-65.0068	-131.4625	
-170.0000	-67.7298	-114.9352	
-165.0000	-65.4665	-95.9952	
-160.0000	-65.6878	-106.7398	
-155.0000	-66.1039	-94.0065	
-150.0000	-66.8380	-106.1730	
-145.0000	-67.0988	-92.3988	
-140.0000	-67.7260	-86.8721	
-135.0000	-69.2511	-97.2776	
-130.0000	-69.6175	-95.6908	
-125.0000	-67.6177	-71.6795	
-120.0000	-71.8588	-73.2524	
-115.0000	-71.8967	-81.1339	
-110.0000	-73.3029	-69.0819	
-105.0000	-69.2874	-68.6870	
-100.0000	-72.9408	-41.4430	
-95.0000	-72.5248	-43.2354	
-90.0000	-72.5797	-36.4077	
-85.0000	-73.3735	-47.2102	
-80.0000	-70.8689	-25.4508	
-75.0000	-72.5244	-30.7837	
-70.0000	-71.4097	-17.4893	
-65.0000	-71.9079	-18.6691	
-60.0000	-69.3434	1.3997	
-55.0000	-71.2445	5.8799	
-50.0000	-69.3221	13.4875	
-45.0000	-69.0396	18.9044	
-40.0000	-68.6808	25.7439	
-35.0000	-67.0763	37.8608	
-30.0000	-67.1911	30.7246	
-25.0000	-67.5087	48.2125	
-20.0000	-65.6474	52.8597	
-15.0000	-65.2976	49.1222	
-10.0000	-65.9201	53.2385	
-5.0000	-66.1511	60.4382	
0.0000	-65.9918	67.1638	
5.0000	-65.7351	68.5055	
10.0000	-65.1441	67.7378	
15.0000	-64.3996	68.9292	
20.0000	-63.8739	75.4906	
25.0000	-65.5636	80.4403	
30.0000	-65.7859	64.9560	
35.0000	-64.3570	73.7388	
40.0000	-65.9367	68.4533	
45.0000	-65.0518	69.2830	
50.0000	-65.5946	63.9802	
55.0000	-65.9215	60.5235	
60.0000	-65.4285	53.8495	
65.0000	-66.8327	53.1982	
70.0000	-65.6474	54.2594	
75.0000	-65.8941	41.2337	
80.0000	-65.8785	38.9710	
85.0000	-66.6056	25.6579	
90.0000	-66.0878	25.6577	
95.0000	-65.7486	19.0183	
100.0000	-65.2574	4.1389	
105.0000	-64.7591	-3.5937	
110.0000	-65.8336	-13.8355	
115.0000	-65.6537	-15.5832	
120.0000	-64.9455	-22.5606	
125.0000	-63.3949	-35.6129	
130.0000	-65.2448	-50.8759	
135.0000	-65.7949	-50.1504	
140.0000	-65.3798	-51.7615	
145.0000	-64.0622	-62.9819	
150.0000	-65.3110	-76.8577	
155.0000	-63.7639	-71.5185	
160.0000	-65.9476	-87.8899	
165.0000	-64.6536	-92.2949	
170.0000	-66.5562	-106.8156	
175.0000	-64.7121	-127.9630	
180.0000	-63.4097	-130.6981	
			
			
			
[Side Lobes Table]
			
No.	Rel Ampl	Azimuth  [deg]	Absolute Ampl
1L	-1.36	105.00	-64.76
2L	-2.48	80.00	-65.88
3L	-2.25	70.00	-65.65
1R	-0.67	145.00	-64.06
2R	-0.37	155.00	-63.76
3R	-1.26	165.00	-64.65
		 	
File Name:	uwb_dipole.rff		
			
Polarizat.	0.000	Phase	
Frequency	4.800 G	 [GHz]	
Roll  	20.000	[deg]	
Ch.	Channel1		
Beam			
Switch			
Dir	0.00	dBi	
Azimuth  [deg]	Amplitude (dB)	Phase [Deg]	
-180.0000	-63.7609	-129.9912	
-175.0000	-64.3291	-132.3764	
-170.0000	-67.3049	-127.9838	
-165.0000	-67.4887	-96.6664	
-160.0000	-65.2686	-103.4099	
-155.0000	-67.1262	-102.2142	
-150.0000	-65.7275	-107.8451	
-145.0000	-68.8686	-103.6250	
-140.0000	-69.8376	-106.5977	
-135.0000	-69.2468	-98.1809	
-130.0000	-68.4099	-95.1923	
-125.0000	-75.0310	-84.0040	
-120.0000	-71.8616	-102.8661	
-115.0000	-71.1842	-90.2660	
-110.0000	-70.0753	-91.0875	
-105.0000	-75.1543	-74.0841	
-100.0000	-73.8196	-81.1546	
-95.0000	-72.8177	-78.4468	
-90.0000	-71.4816	-66.6634	
-85.0000	-71.4786	-58.9070	
-80.0000	-72.2051	-49.0576	
-75.0000	-73.2093	-36.2138	
-70.0000	-72.1462	-40.0539	
-65.0000	-71.8892	-32.2352	
-60.0000	-72.1483	-20.7506	
-55.0000	-72.2708	-14.3103	
-50.0000	-70.2608	-5.2237	
-45.0000	-70.6398	9.7581	
-40.0000	-68.7820	11.6093	
-35.0000	-69.7518	27.5350	
-30.0000	-67.2155	27.6373	
-25.0000	-68.3247	35.0435	
-20.0000	-66.7894	49.0114	
-15.0000	-65.5843	46.3010	
-10.0000	-65.9706	47.9488	
-5.0000	-66.4442	56.7882	
0.0000	-66.3090	64.8391	
5.0000	-66.0262	68.8077	
10.0000	-65.6219	68.2340	
15.0000	-64.7086	68.4308	
20.0000	-63.8588	73.5189	
25.0000	-64.2864	83.2080	
30.0000	-66.1823	78.8361	
35.0000	-64.6347	73.6977	
40.0000	-65.8068	78.8694	
45.0000	-65.2838	71.4735	
50.0000	-65.7761	67.5034	
55.0000	-65.6844	71.0862	
60.0000	-66.2547	64.3880	
65.0000	-65.1744	66.4313	
70.0000	-65.1675	51.7059	
75.0000	-66.2435	52.1648	
80.0000	-66.4593	42.3521	
85.0000	-66.7539	41.7646	
90.0000	-66.2527	30.3766	
95.0000	-66.3372	21.2686	
100.0000	-66.9013	11.4415	
105.0000	-66.3928	5.9057	
110.0000	-66.0399	1.2670	
115.0000	-64.8164	-7.8794	
120.0000	-65.0586	-24.2365	
125.0000	-66.0164	-39.8308	
130.0000	-66.7232	-33.7977	
135.0000	-64.5229	-37.0603	
140.0000	-64.3579	-49.8511	
145.0000	-64.8645	-62.2502	
150.0000	-65.2352	-59.9200	
155.0000	-63.4085	-73.1220	
160.0000	-65.9841	-70.5745	
165.0000	-64.9635	-92.3127	
170.0000	-65.9847	-94.8206	
175.0000	-65.8979	-121.1253	
180.0000	-63.7605	-130.1837	
			
			
			
[Side Lobes Table]
			
No.	Rel Ampl	Azimuth  [deg]	Absolute Ampl
1L	-0.95	140.00	-64.36
2L	-1.41	115.00	-64.82
3L	-2.84	90.00	-66.25
1R	-1.56	165.00	-64.96
		 	
File Name:	uwb_dipole.rff		
			
Polarizat.	0.000	Phase	
Frequency	4.800 G	 [GHz]	
Roll  	25.000	[deg]	
Ch.	Channel1		
Beam			
Switch			
Dir	0.00	dBi	
Azimuth  [deg]	Amplitude (dB)	Phase [Deg]	
-180.0000	-64.0274	-131.1930	
-175.0000	-65.8708	-135.3200	
-170.0000	-69.5015	-120.6627	
-165.0000	-66.7469	-95.0980	
-160.0000	-66.6829	-109.2691	
-155.0000	-67.0101	-97.5819	
-150.0000	-67.4740	-119.0820	
-145.0000	-68.5471	-107.0071	
-140.0000	-70.5594	-117.5017	
-135.0000	-73.8207	-112.0082	
-130.0000	-69.6525	-117.1816	
-125.0000	-71.6447	-99.9469	
-120.0000	-74.9905	-108.2669	
-115.0000	-75.0548	-112.5500	
-110.0000	-72.4672	-119.8356	
-105.0000	-71.9778	-104.6827	
-100.0000	-75.0461	-88.4618	
-95.0000	-72.8279	-91.3498	
-90.0000	-75.0861	-82.9683	
-85.0000	-72.5773	-84.7533	
-80.0000	-72.7337	-71.9823	
-75.0000	-73.2623	-70.6567	
-70.0000	-71.5725	-50.1436	
-65.0000	-71.8977	-51.2835	
-60.0000	-70.3518	-34.2100	
-55.0000	-72.7839	-22.8908	
-50.0000	-70.6878	-13.6434	
-45.0000	-71.0198	-1.6978	
-40.0000	-69.7549	7.1988	
-35.0000	-69.2882	22.2953	
-30.0000	-68.5915	22.5056	
-25.0000	-68.5186	39.9444	
-20.0000	-66.3885	45.3243	
-15.0000	-66.0982	44.4679	
-10.0000	-66.7390	49.8005	
-5.0000	-66.8080	59.9439	
0.0000	-66.5009	66.8134	
5.0000	-66.2361	68.7795	
10.0000	-65.6580	67.7865	
15.0000	-64.6077	68.8323	
20.0000	-63.7228	77.4856	
25.0000	-64.8133	86.6250	
30.0000	-66.0276	78.1592	
35.0000	-64.7014	82.7351	
40.0000	-66.0881	81.2058	
45.0000	-65.7996	80.0850	
50.0000	-65.6742	72.9433	
55.0000	-65.9122	75.8936	
60.0000	-66.1788	67.5794	
65.0000	-66.7913	71.9685	
70.0000	-65.6405	67.0028	
75.0000	-66.0061	59.8739	
80.0000	-65.9723	54.5805	
85.0000	-66.9197	51.8116	
90.0000	-65.9600	45.0785	
95.0000	-66.6448	35.2402	
100.0000	-65.7545	24.1062	
105.0000	-65.5407	8.8215	
110.0000	-66.8644	7.1286	
115.0000	-66.2855	-4.3213	
120.0000	-65.4954	-8.6055	
125.0000	-63.9969	-30.0082	
130.0000	-65.8574	-46.7381	
135.0000	-65.8032	-41.8491	
140.0000	-65.5011	-43.9863	
145.0000	-64.0901	-59.0044	
150.0000	-65.1948	-69.2095	
155.0000	-63.7465	-63.1045	
160.0000	-66.4101	-80.3901	
165.0000	-64.8138	-89.1874	
170.0000	-66.5896	-100.8463	
175.0000	-65.2432	-124.9627	
180.0000	-64.0604	-131.1850	
			
			
			
[Side Lobes Table]
			
No.	Rel Ampl	Azimuth  [deg]	Absolute Ampl
1L	-2.38	-15.00	-66.10
2L	-6.96	-50.00	-70.69
3L	-6.63	-60.00	-70.35
1R	-0.98	35.00	-64.70
2R	-1.95	50.00	-65.67
3R	-1.92	70.00	-65.64
		 	
File Name:	uwb_dipole.rff		
			
Polarizat.	0.000	Phase	
Frequency	4.800 G	 [GHz]	
Roll  	30.000	[deg]	
Ch.	Channel1		
Beam			
Switch			
Dir	0.00	dBi	
Azimuth  [deg]	Amplitude (dB)	Phase [Deg]	
-180.0000	-64.4595	-129.4698	
-175.0000	-65.2112	-134.8473	
-170.0000	-68.5159	-135.2743	
-165.0000	-69.3944	-99.7942	
-160.0000	-66.9176	-106.8220	
-155.0000	-69.5029	-104.3339	
-150.0000	-67.1207	-114.8189	
-145.0000	-71.0568	-112.2583	
-140.0000	-69.0726	-123.4109	
-135.0000	-70.3101	-132.0224	
-130.0000	-71.2149	-118.4182	
-125.0000	-77.0803	-132.4981	
-120.0000	-72.2031	-135.8259	
-115.0000	-72.5439	-131.2511	
-110.0000	-69.8475	-116.1978	
-105.0000	-74.0736	-128.6301	
-100.0000	-71.8918	-120.3723	
-95.0000	-72.4125	-104.9131	
-90.0000	-69.4323	-101.2104	
-85.0000	-72.0539	-86.4885	
-80.0000	-70.9841	-83.0523	
-75.0000	-71.6998	-75.2608	
-70.0000	-72.2987	-76.5687	
-65.0000	-70.8319	-61.1903	
-60.0000	-72.5176	-53.7739	
-55.0000	-70.5745	-40.5222	
-50.0000	-71.7110	-31.5163	
-45.0000	-70.3709	-16.7633	
-40.0000	-71.0582	-9.3043	
-35.0000	-70.0447	9.8573	
-30.0000	-68.9603	11.3430	
-25.0000	-70.2714	25.0437	
-20.0000	-67.8363	42.6834	
-15.0000	-66.4900	40.3562	
-10.0000	-66.9410	43.8814	
-5.0000	-67.3236	53.8368	
0.0000	-66.9088	63.9058	
5.0000	-66.7654	67.6199	
10.0000	-66.3695	67.6277	
15.0000	-65.4694	67.7241	
20.0000	-64.3472	72.0981	
25.0000	-64.2034	84.7869	
30.0000	-66.0451	86.5617	
35.0000	-65.1350	80.1885	
40.0000	-65.7919	88.5300	
45.0000	-65.8010	85.6551	
50.0000	-66.9969	81.6644	
55.0000	-66.1788	81.4921	
60.0000	-66.5012	82.1918	
65.0000	-65.1385	81.4275	
70.0000	-65.9565	73.4614	
75.0000	-66.4827	69.2547	
80.0000	-67.1656	62.6000	
85.0000	-66.0157	63.3098	
90.0000	-66.9644	51.2473	
95.0000	-66.2411	49.4194	
100.0000	-67.8869	35.1021	
105.0000	-67.4327	29.2191	
110.0000	-65.9650	17.6841	
115.0000	-66.0669	10.8871	
120.0000	-65.7503	-11.5780	
125.0000	-67.8415	-27.5198	
130.0000	-67.7236	-15.4058	
135.0000	-65.6387	-33.0624	
140.0000	-64.6093	-42.3392	
145.0000	-65.8269	-57.8108	
150.0000	-65.4595	-55.4330	
155.0000	-63.6516	-66.7217	
160.0000	-66.2440	-65.7918	
165.0000	-65.3039	-89.9637	
170.0000	-65.7531	-91.6008	
175.0000	-66.4492	-116.2533	
180.0000	-64.5402	-129.6794	
			
			
			
[Side Lobes Table]
			
No.	Rel Ampl	Azimuth  [deg]	Absolute Ampl
1L	-0.96	140.00	-64.61
2L	-2.10	120.00	-65.75
3L	-2.31	110.00	-65.96
1R	-1.65	165.00	-65.30
		 	
File Name:	uwb_dipole.rff		
			
Polarizat.	0.000	Phase	
Frequency	4.800 G	 [GHz]	
Roll  	35.000	[deg]	
Ch.	Channel1		
Beam			
Switch			
Dir	0.00	dBi	
Azimuth  [deg]	Amplitude (dB)	Phase [Deg]	
-180.0000	-64.7683	-133.0694	
-175.0000	-66.7709	-141.0067	
-170.0000	-70.7424	-131.4436	
-165.0000	-68.6450	-101.3845	
-160.0000	-68.8312	-120.0503	
-155.0000	-69.6735	-105.4429	
-150.0000	-69.5204	-135.4496	
-145.0000	-70.9216	-111.9249	
-140.0000	-71.5559	-129.3580	
-135.0000	-72.5314	-135.6270	
-130.0000	-68.4843	-142.0337	
-125.0000	-72.6101	-142.1043	
-120.0000	-72.9867	-138.8626	
-115.0000	-74.3217	-162.4029	
-110.0000	-69.6262	-133.1079	
-105.0000	-70.0917	-133.0065	
-100.0000	-71.6782	-123.9128	
-95.0000	-71.8304	-109.8962	
-90.0000	-69.8671	-109.5913	
-85.0000	-71.4435	-103.2400	
-80.0000	-70.3422	-93.2828	
-75.0000	-70.5340	-84.5671	
-70.0000	-70.0750	-78.3829	
-65.0000	-69.7393	-64.2581	
-60.0000	-71.6741	-58.0560	
-55.0000	-70.5215	-39.7871	
-50.0000	-71.9299	-37.1421	
-45.0000	-69.3707	-21.9550	
-40.0000	-72.2306	-15.1359	
-35.0000	-69.3450	11.1209	
-30.0000	-69.6870	0.7762	
-25.0000	-70.8038	30.4492	
-20.0000	-67.7505	43.0199	
-15.0000	-67.0204	39.9501	
-10.0000	-67.7201	47.7041	
-5.0000	-67.6720	58.9487	
0.0000	-67.4196	65.3066	
5.0000	-67.2131	67.8158	
10.0000	-66.6072	67.6422	
15.0000	-65.5433	68.6743	
20.0000	-64.5872	77.2246	
25.0000	-65.2636	90.1591	
30.0000	-66.5662	84.1062	
35.0000	-65.2844	87.7741	
40.0000	-66.0641	91.0727	
45.0000	-65.8188	95.5051	
50.0000	-66.8349	91.3022	
55.0000	-66.4851	91.4107	
60.0000	-67.3795	84.7816	
65.0000	-65.9705	87.0873	
70.0000	-65.5882	88.3517	
75.0000	-65.7390	80.1958	
80.0000	-66.4940	73.3576	
85.0000	-66.0235	71.2839	
90.0000	-65.8939	63.7423	
95.0000	-66.1015	58.3849	
100.0000	-65.7492	42.4065	
105.0000	-66.5888	31.2502	
110.0000	-66.9833	19.5211	
115.0000	-67.1532	16.2276	
120.0000	-65.9067	5.1560	
125.0000	-65.1632	-19.8973	
130.0000	-67.1172	-31.8126	
135.0000	-67.5051	-37.6707	
140.0000	-66.0469	-36.2101	
145.0000	-65.0698	-53.4236	
150.0000	-66.0339	-65.4879	
155.0000	-64.3725	-61.0757	
160.0000	-67.0271	-81.2074	
165.0000	-64.9889	-89.4114	
170.0000	-66.4237	-97.4517	
175.0000	-65.9862	-123.6253	
180.0000	-64.7920	-133.5507	
			
			
			
[Side Lobes Table]
			
No.	Rel Ampl	Azimuth  [deg]	Absolute Ampl
1L	-0.70	145.00	-65.07
2L	-0.79	125.00	-65.16
3L	-1.38	100.00	-65.75
1R	-0.62	165.00	-64.99
		 	
File Name:	uwb_dipole.rff		
			
Polarizat.	0.000	Phase	
Frequency	4.800 G	 [GHz]	
Roll  	40.000	[deg]	
Ch.	Channel1		
Beam			
Switch			
Dir	0.00	dBi	
Azimuth  [deg]	Amplitude (dB)	Phase [Deg]	
-180.0000	-65.4354	-130.6713	
-175.0000	-66.2557	-139.6859	
-170.0000	-69.6104	-143.5025	
-165.0000	-70.8387	-109.7764	
-160.0000	-68.4739	-117.7601	
-155.0000	-71.8438	-122.8234	
-150.0000	-68.6017	-130.4628	
-145.0000	-73.8738	-133.8641	
-140.0000	-70.4715	-142.6967	
-135.0000	-72.6453	-149.8659	
-130.0000	-72.0316	-120.2512	
-125.0000	-71.4456	-146.2985	
-120.0000	-71.1613	-162.0212	
-115.0000	-68.7259	-153.4084	
-110.0000	-71.1035	-140.9445	
-105.0000	-70.9561	-136.3436	
-100.0000	-70.2079	-135.5574	
-95.0000	-69.1952	-118.7360	
-90.0000	-68.7258	-104.2935	
-85.0000	-69.6335	-102.3626	
-80.0000	-69.7082	-93.1976	
-75.0000	-70.5752	-92.6183	
-70.0000	-70.0589	-85.1254	
-65.0000	-70.6203	-73.2796	
-60.0000	-69.4926	-69.8418	
-55.0000	-71.0237	-51.7197	
-50.0000	-70.5275	-49.0329	
-45.0000	-71.2995	-24.5948	
-40.0000	-69.6300	-27.4093	
-35.0000	-72.5321	1.0515	
-30.0000	-68.6407	0.6889	
-25.0000	-71.7930	3.1880	
-20.0000	-69.8190	36.7880	
-15.0000	-67.7583	38.4237	
-10.0000	-68.2666	42.0535	
-5.0000	-68.3858	53.5821	
0.0000	-68.1740	63.2580	
5.0000	-68.0038	66.8797	
10.0000	-67.6002	67.9238	
15.0000	-66.7412	68.7384	
20.0000	-65.6023	73.9713	
25.0000	-65.2449	87.2358	
30.0000	-66.8907	94.5845	
35.0000	-66.4681	85.7526	
40.0000	-66.6485	93.7211	
45.0000	-66.0994	92.5438	
50.0000	-66.8680	98.1122	
55.0000	-66.4989	97.0052	
60.0000	-66.6962	105.2188	
65.0000	-66.0863	93.6916	
70.0000	-65.6980	89.7053	
75.0000	-66.2748	83.4833	
80.0000	-66.4450	85.7907	
85.0000	-66.3758	82.3667	
90.0000	-66.2691	70.1855	
95.0000	-65.6911	68.1131	
100.0000	-67.9339	52.2885	
105.0000	-66.5395	49.2004	
110.0000	-66.6836	39.3022	
115.0000	-66.4138	26.4174	
120.0000	-66.5507	2.3016	
125.0000	-69.2701	-14.0986	
130.0000	-67.6767	-3.6241	
135.0000	-66.8093	-19.2715	
140.0000	-66.0608	-35.0285	
145.0000	-66.8212	-52.4019	
150.0000	-66.5014	-48.0648	
155.0000	-64.9677	-63.9608	
160.0000	-67.3675	-64.1051	
165.0000	-65.9865	-91.0325	
170.0000	-65.9833	-91.9808	
175.0000	-67.2119	-113.5332	
180.0000	-65.4556	-131.1379	
			
			
			
[Side Lobes Table]
			
No.	Rel Ampl	Azimuth  [deg]	Absolute Ampl
1L	-1.09	140.00	-66.06
2L	-1.45	115.00	-66.41
3L	-1.57	105.00	-66.54
1R	-1.02	170.00	-65.98
		 	
File Name:	uwb_dipole.rff		
			
Polarizat.	0.000	Phase	
Frequency	4.800 G	 [GHz]	
Roll  	45.000	[deg]	
Ch.	Channel1		
Beam			
Switch			
Dir	0.00	dBi	
Azimuth  [deg]	Amplitude (dB)	Phase [Deg]	
-180.0000	-65.9939	-133.7585	
-175.0000	-67.8517	-145.7978	
-170.0000	-71.4648	-138.8586	
-165.0000	-69.8228	-109.8865	
-160.0000	-69.7595	-133.3922	
-155.0000	-70.8549	-123.2217	
-150.0000	-69.5500	-153.1532	
-145.0000	-71.4214	-126.7372	
-140.0000	-70.5380	-154.7266	
-135.0000	-72.1271	-177.6774	
-130.0000	-72.3583	-155.8225	
-125.0000	-70.2274	-145.9586	
-120.0000	-72.3367	-144.9912	
-115.0000	-69.8121	-150.4875	
-110.0000	-68.6315	-150.0231	
-105.0000	-68.7393	-135.2454	
-100.0000	-71.5921	-121.7332	
-95.0000	-69.4652	-121.3290	
-90.0000	-69.5615	-103.3754	
-85.0000	-69.8617	-108.8693	
-80.0000	-68.4625	-93.2951	
-75.0000	-70.7695	-91.8351	
-70.0000	-68.4010	-84.9447	
-65.0000	-70.0579	-65.6087	
-60.0000	-70.3158	-67.7251	
-55.0000	-69.6916	-50.0378	
-50.0000	-71.4913	-49.6685	
-45.0000	-70.3744	-28.8266	
-40.0000	-70.7793	-30.5097	
-35.0000	-71.8598	2.3505	
-30.0000	-69.6525	-5.2484	
-25.0000	-72.6168	12.2062	
-20.0000	-69.7392	35.9897	
-15.0000	-68.6465	35.7966	
-10.0000	-69.3057	45.6420	
-5.0000	-68.8608	56.8096	
0.0000	-68.8222	63.9169	
5.0000	-68.6437	67.6064	
10.0000	-68.0614	68.3465	
15.0000	-67.1655	69.8396	
20.0000	-65.9754	80.0325	
25.0000	-66.3055	95.6855	
30.0000	-68.0339	93.5833	
35.0000	-67.0428	95.3714	
40.0000	-67.7778	99.1272	
45.0000	-66.7394	101.1620	
50.0000	-67.4698	101.6056	
55.0000	-66.3989	99.9229	
60.0000	-66.8131	105.7011	
65.0000	-66.3521	103.0046	
70.0000	-65.9681	100.7229	
75.0000	-65.8997	89.4622	
80.0000	-65.7102	88.8462	
85.0000	-66.0728	85.0357	
90.0000	-65.7755	74.7150	
95.0000	-64.9715	72.7642	
100.0000	-66.8559	55.3963	
105.0000	-65.7621	46.2164	
110.0000	-67.3653	35.5621	
115.0000	-67.4698	39.1070	
120.0000	-65.8948	17.0120	
125.0000	-67.1865	-8.9446	
130.0000	-67.9520	-18.6127	
135.0000	-69.1229	-24.8642	
140.0000	-67.6401	-25.5944	
145.0000	-66.0820	-49.6168	
150.0000	-67.5912	-57.1202	
155.0000	-65.9665	-57.2305	
160.0000	-68.4261	-82.0094	
165.0000	-65.9693	-89.9223	
170.0000	-67.3509	-97.6440	
175.0000	-67.0996	-123.0848	
180.0000	-66.0139	-134.4863	
			
			
			
[Side Lobes Table]
			
No.	Rel Ampl	Azimuth  [deg]	Absolute Ampl
1L	-0.74	80.00	-65.71
2L	-1.43	55.00	-66.40
3L	-1.77	45.00	-66.74
1R	-0.79	105.00	-65.76
2R	-0.92	120.00	-65.89
3R	-1.11	145.00	-66.08
		 	
File Name:	uwb_dipole.rff		
			
Polarizat.	0.000	Phase	
Frequency	4.800 G	 [GHz]	
Roll  	50.000	[deg]	
Ch.	Channel1		
Beam			
Switch			
Dir	0.00	dBi	
Azimuth  [deg]	Amplitude (dB)	Phase [Deg]	
-180.0000	-66.6916	-132.5062	
-175.0000	-67.4861	-142.5925	
-170.0000	-70.4047	-147.6272	
-165.0000	-71.5588	-115.7276	
-160.0000	-69.5542	-124.6245	
-155.0000	-71.8310	-129.2022	
-150.0000	-68.6300	-137.2460	
-145.0000	-74.6632	-138.1444	
-140.0000	-70.1742	-140.9163	
-135.0000	-69.7124	-149.5333	
-130.0000	-71.2363	-161.2534	
-125.0000	-72.9821	-156.4257	
-120.0000	-70.4713	-167.6373	
-115.0000	-70.8394	-154.5816	
-110.0000	-68.8482	-140.1303	
-105.0000	-70.8319	-136.9438	
-100.0000	-68.4811	-142.0588	
-95.0000	-69.2674	-113.3854	
-90.0000	-69.1440	-112.9022	
-85.0000	-68.9739	-94.8659	
-80.0000	-70.4207	-93.1973	
-75.0000	-68.6910	-96.0504	
-70.0000	-70.7409	-80.6199	
-65.0000	-69.4931	-83.9518	
-60.0000	-69.2223	-66.9876	
-55.0000	-71.5861	-53.1777	
-50.0000	-69.7942	-51.4562	
-45.0000	-72.0135	-37.3240	
-40.0000	-70.6216	-29.4884	
-35.0000	-72.6623	-21.6088	
-30.0000	-70.7968	-4.2407	
-25.0000	-71.6477	-4.1686	
-20.0000	-71.9863	26.5681	
-15.0000	-69.6598	33.6109	
-10.0000	-69.9378	38.0370	
-5.0000	-69.9301	51.8563	
0.0000	-69.7381	60.7759	
5.0000	-69.5938	65.4125	
10.0000	-69.3978	67.4709	
15.0000	-68.6526	69.9684	
20.0000	-67.1622	77.7379	
25.0000	-66.4763	92.0166	
30.0000	-68.0229	101.5171	
35.0000	-68.0166	95.6564	
40.0000	-68.2584	105.1351	
45.0000	-67.8100	103.6342	
50.0000	-67.8803	109.1073	
55.0000	-68.0078	107.0552	
60.0000	-66.5665	108.9134	
65.0000	-65.9993	106.9842	
70.0000	-65.8363	100.7176	
75.0000	-67.1365	98.5472	
80.0000	-66.5861	89.6588	
85.0000	-66.3168	91.6151	
90.0000	-66.0967	80.0522	
95.0000	-66.2352	72.4097	
100.0000	-66.8026	69.1100	
105.0000	-67.6100	58.2006	
110.0000	-66.6804	52.5168	
115.0000	-66.2260	33.4487	
120.0000	-68.1676	15.4683	
125.0000	-69.8734	12.2698	
130.0000	-69.5924	7.3665	
135.0000	-67.8285	-6.1672	
140.0000	-67.3568	-28.2277	
145.0000	-69.1400	-45.0919	
150.0000	-67.9215	-42.6310	
155.0000	-66.5962	-61.0493	
160.0000	-69.6538	-61.6904	
165.0000	-67.3531	-91.1404	
170.0000	-67.1644	-90.5274	
175.0000	-68.4350	-114.3991	
180.0000	-66.7449	-131.6823	
			
			
			
[Side Lobes Table]
			
No.	Rel Ampl	Azimuth  [deg]	Absolute Ampl
1L	-1.97	45.00	-67.81
2L	-2.18	35.00	-68.02
3L	-0.64	25.00	-66.48
1R	-0.26	90.00	-66.10
2R	-0.39	115.00	-66.23
3R	-1.52	140.00	-67.36
		 	
File Name:	uwb_dipole.rff		
			
Polarizat.	0.000	Phase	
Frequency	4.800 G	 [GHz]	
Roll  	55.000	[deg]	
Ch.	Channel1		
Beam			
Switch			
Dir	0.00	dBi	
Azimuth  [deg]	Amplitude (dB)	Phase [Deg]	
-180.0000	-67.5454	-136.8505	
-175.0000	-69.0221	-149.2292	
-170.0000	-72.1581	-141.0970	
-165.0000	-71.2249	-112.2240	
-160.0000	-70.7687	-132.5981	
-155.0000	-71.1371	-122.3255	
-150.0000	-71.5765	-150.6628	
-145.0000	-74.4130	-116.3729	
-140.0000	-75.2264	-134.6816	
-135.0000	-71.7725	-147.4216	
-130.0000	-71.0980	-162.9471	
-125.0000	-70.8377	-146.2508	
-120.0000	-70.0050	-152.4635	
-115.0000	-70.9442	-150.6970	
-110.0000	-68.2260	-147.0493	
-105.0000	-70.2928	-129.9613	
-100.0000	-70.1314	-126.5031	
-95.0000	-70.5432	-112.1564	
-90.0000	-69.1012	-109.7848	
-85.0000	-69.9600	-98.2002	
-80.0000	-70.2680	-90.3225	
-75.0000	-68.9147	-88.1740	
-70.0000	-70.2469	-76.8265	
-65.0000	-69.7076	-71.0135	
-60.0000	-70.7270	-66.5883	
-55.0000	-71.7058	-52.5649	
-50.0000	-71.1803	-51.6664	
-45.0000	-71.7962	-36.3885	
-40.0000	-72.4012	-31.8954	
-35.0000	-72.4616	-13.0020	
-30.0000	-72.0515	-7.3625	
-25.0000	-73.4932	4.6826	
-20.0000	-71.7997	30.2946	
-15.0000	-70.7777	33.1642	
-10.0000	-71.2813	43.0038	
-5.0000	-70.9417	56.4108	
0.0000	-70.5616	61.9893	
5.0000	-70.6616	65.6893	
10.0000	-70.1779	68.9402	
15.0000	-69.0397	71.3263	
20.0000	-67.4088	83.5967	
25.0000	-67.6227	100.1671	
30.0000	-69.3290	98.1152	
35.0000	-68.1181	103.3367	
40.0000	-69.4053	109.7098	
45.0000	-68.0167	110.3174	
50.0000	-68.2635	115.0168	
55.0000	-67.9656	109.2093	
60.0000	-67.5335	111.5765	
65.0000	-66.8016	111.2401	
70.0000	-65.8616	106.5787	
75.0000	-66.8041	100.6145	
80.0000	-66.2415	92.5458	
85.0000	-66.5339	91.5867	
90.0000	-66.1026	82.1175	
95.0000	-66.2047	75.3971	
100.0000	-66.2719	64.3415	
105.0000	-66.7054	51.5535	
110.0000	-68.1314	45.0940	
115.0000	-68.3614	44.1899	
120.0000	-67.2376	25.0804	
125.0000	-67.9487	5.9346	
130.0000	-70.3177	-9.0269	
135.0000	-71.0682	-11.1484	
140.0000	-68.8821	-16.7750	
145.0000	-68.5265	-42.8841	
150.0000	-69.6810	-54.4634	
155.0000	-67.6548	-52.9898	
160.0000	-70.7281	-77.6841	
165.0000	-67.7636	-88.8841	
170.0000	-69.0678	-96.7110	
175.0000	-68.8512	-124.4171	
180.0000	-67.5600	-137.9105	
			
			
			
[Side Lobes Table]
			
No.	Rel Ampl	Azimuth  [deg]	Absolute Ampl
1L	-2.16	45.00	-68.02
2L	-2.26	35.00	-68.12
3L	-1.55	20.00	-67.41
1R	-0.38	80.00	-66.24
2R	-0.24	90.00	-66.10
3R	-1.38	120.00	-67.24
		 	
File Name:	uwb_dipole.rff		
			
Polarizat.	0.000	Phase	
Frequency	4.800 G	 [GHz]	
Roll  	60.000	[deg]	
Ch.	Channel1		
Beam			
Switch			
Dir	0.00	dBi	
Azimuth  [deg]	Amplitude (dB)	Phase [Deg]	
-180.0000	-68.8798	-135.1201	
-175.0000	-69.3571	-147.3596	
-170.0000	-71.5705	-150.3062	
-165.0000	-73.5937	-114.6960	
-160.0000	-71.5717	-122.2126	
-155.0000	-73.3913	-126.5657	
-150.0000	-71.5389	-137.9999	
-145.0000	-80.5792	-144.3387	
-140.0000	-77.5377	-163.3414	
-135.0000	-76.9988	-139.7430	
-130.0000	-74.5306	-152.7434	
-125.0000	-75.6384	-162.2279	
-120.0000	-72.6006	-151.4199	
-115.0000	-70.6499	-153.2873	
-110.0000	-69.8671	-139.5507	
-105.0000	-70.0752	-145.4303	
-100.0000	-70.3185	-136.3793	
-95.0000	-69.8507	-122.8340	
-90.0000	-71.1491	-97.5008	
-85.0000	-69.9020	-98.4294	
-80.0000	-70.9243	-90.5070	
-75.0000	-71.8292	-86.6587	
-70.0000	-70.4430	-84.9928	
-65.0000	-71.3284	-71.9548	
-60.0000	-70.6776	-73.2879	
-55.0000	-71.4103	-57.0143	
-50.0000	-72.5271	-52.0443	
-45.0000	-72.1897	-40.4690	
-40.0000	-72.7145	-35.8788	
-35.0000	-73.7773	-17.6557	
-30.0000	-72.9778	-18.5397	
-25.0000	-74.5602	-2.1510	
-20.0000	-74.1238	21.3433	
-15.0000	-72.0762	29.6354	
-10.0000	-72.5953	38.0520	
-5.0000	-72.1346	51.3238	
0.0000	-71.8614	58.6641	
5.0000	-71.9831	61.8952	
10.0000	-71.8935	66.5949	
15.0000	-70.8371	71.5071	
20.0000	-69.0670	78.3911	
25.0000	-68.2177	94.2729	
30.0000	-70.1232	104.4974	
35.0000	-69.6103	99.6824	
40.0000	-69.7420	114.0138	
45.0000	-69.6354	110.1072	
50.0000	-68.8520	116.6099	
55.0000	-69.0453	115.8970	
60.0000	-67.8641	115.6360	
65.0000	-66.9094	112.6426	
70.0000	-67.1810	103.4335	
75.0000	-67.7622	104.7843	
80.0000	-67.7899	95.8511	
85.0000	-67.5382	94.9353	
90.0000	-67.2028	83.1754	
95.0000	-67.5451	77.2945	
100.0000	-68.3036	71.0736	
105.0000	-68.3358	61.9883	
110.0000	-67.9975	59.2536	
115.0000	-67.3699	42.1936	
120.0000	-69.2086	24.4012	
125.0000	-71.4873	23.0723	
130.0000	-70.8781	18.3551	
135.0000	-69.6528	2.3986	
140.0000	-69.5584	-23.4987	
145.0000	-71.0297	-35.7524	
150.0000	-70.5686	-38.0373	
155.0000	-68.9247	-61.2415	
160.0000	-71.4884	-59.4474	
165.0000	-69.7179	-90.1802	
170.0000	-69.5115	-91.2215	
175.0000	-70.6447	-116.0863	
180.0000	-68.8300	-136.4459	
			
			
			
[Side Lobes Table]
			
No.	Rel Ampl	Azimuth  [deg]	Absolute Ampl
1L	-1.94	50.00	-68.85
2L	-2.70	35.00	-69.61
3L	-1.31	25.00	-68.22
1R	-0.29	90.00	-67.20
2R	-0.46	115.00	-67.37
3R	-2.65	140.00	-69.56
		 	
File Name:	uwb_dipole.rff		
			
Polarizat.	0.000	Phase	
Frequency	4.800 G	 [GHz]	
Roll  	65.000	[deg]	
Ch.	Channel1		
Beam			
Switch			
Dir	0.00	dBi	
Azimuth  [deg]	Amplitude (dB)	Phase [Deg]	
-180.0000	-70.1367	-140.4409	
-175.0000	-71.1399	-152.8007	
-170.0000	-73.9761	-138.4545	
-165.0000	-73.9705	-108.5142	
-160.0000	-73.5758	-130.9412	
-155.0000	-74.7791	-123.9776	
-150.0000	-74.5015	-158.1636	
-145.0000	-78.3339	-152.1116	
-140.0000	-78.4017	159.0714	
-135.0000	-76.2923	179.2787	
-130.0000	-72.5654	-174.9549	
-125.0000	-73.2381	-166.4384	
-120.0000	-72.5257	-152.2427	
-115.0000	-71.3389	-148.3348	
-110.0000	-70.3480	-137.8251	
-105.0000	-70.1981	-119.0138	
-100.0000	-71.1933	-120.6942	
-95.0000	-70.7318	-120.5991	
-90.0000	-73.0509	-99.6709	
-85.0000	-71.4963	-100.0144	
-80.0000	-71.3171	-83.1881	
-75.0000	-72.1262	-80.7990	
-70.0000	-71.5210	-74.3327	
-65.0000	-72.4107	-59.5207	
-60.0000	-73.1479	-70.1960	
-55.0000	-71.6377	-55.2925	
-50.0000	-74.6326	-50.4039	
-45.0000	-72.6109	-38.9975	
-40.0000	-75.9919	-36.8685	
-35.0000	-73.2760	-8.3330	
-30.0000	-75.2353	-24.0881	
-25.0000	-76.3325	9.4736	
-20.0000	-74.4012	27.8480	
-15.0000	-73.9910	29.1507	
-10.0000	-74.1499	45.1138	
-5.0000	-73.2575	51.3296	
0.0000	-73.2621	58.2142	
5.0000	-73.8365	62.3982	
10.0000	-73.1816	68.8092	
15.0000	-71.3773	72.3179	
20.0000	-69.6135	83.2139	
25.0000	-70.3989	101.2694	
30.0000	-72.6455	99.6671	
35.0000	-70.4256	106.1487	
40.0000	-71.8185	117.5504	
45.0000	-70.3434	113.7438	
50.0000	-70.0605	118.0087	
55.0000	-69.7337	114.1044	
60.0000	-69.2052	112.6436	
65.0000	-68.2780	114.6632	
70.0000	-67.9095	108.2029	
75.0000	-68.5524	100.4494	
80.0000	-67.9589	95.6492	
85.0000	-68.4844	92.6754	
90.0000	-67.5649	82.1798	
95.0000	-68.2497	75.4302	
100.0000	-68.1493	65.2406	
105.0000	-68.1266	52.0588	
110.0000	-70.1867	45.7673	
115.0000	-69.7488	49.8960	
120.0000	-69.2811	30.3258	
125.0000	-70.2838	12.0806	
130.0000	-72.0308	-4.3909	
135.0000	-73.8158	-4.5651	
140.0000	-71.2350	-13.8708	
145.0000	-70.6944	-38.9658	
150.0000	-72.7774	-50.8057	
155.0000	-70.2610	-56.0857	
160.0000	-72.8587	-77.6764	
165.0000	-70.8168	-87.4150	
170.0000	-71.9257	-99.2180	
175.0000	-71.4214	-128.0353	
180.0000	-70.0875	-141.1377	
			
			
			
[Side Lobes Table]
			
No.	Rel Ampl	Azimuth  [deg]	Absolute Ampl
1L	-0.39	80.00	-67.96
2L	-0.34	70.00	-67.91
3L	-2.86	35.00	-70.43
1R	-0.56	105.00	-68.13
2R	-1.72	120.00	-69.28
3R	-3.13	145.00	-70.69
		 	
File Name:	uwb_dipole.rff		
			
Polarizat.	0.000	Phase	
Frequency	4.800 G	 [GHz]	
Roll  	70.000	[deg]	
Ch.	Channel1		
Beam			
Switch			
Dir	0.00	dBi	
Azimuth  [deg]	Amplitude (dB)	Phase [Deg]	
-180.0000	-71.8731	-138.1277	
-175.0000	-71.8595	-148.1228	
-170.0000	-74.3117	-146.1530	
-165.0000	-76.7588	-114.7363	
-160.0000	-75.5825	-119.9111	
-155.0000	-76.8919	-133.1213	
-150.0000	-74.4119	-138.6985	
-145.0000	-78.5166	-162.5402	
-140.0000	-74.4505	177.0173	
-135.0000	-76.3383	-175.4244	
-130.0000	-74.6295	-166.3474	
-125.0000	-73.6244	-168.5799	
-120.0000	-72.2573	-160.5528	
-115.0000	-72.0358	-156.2832	
-110.0000	-72.1101	-145.0103	
-105.0000	-74.9747	-147.2642	
-100.0000	-72.2813	-121.7888	
-95.0000	-72.4828	-111.8912	
-90.0000	-72.6615	-107.3074	
-85.0000	-73.7134	-96.2743	
-80.0000	-75.2208	-94.3715	
-75.0000	-73.3768	-76.0099	
-70.0000	-74.6497	-79.1964	
-65.0000	-73.6244	-73.4957	
-60.0000	-72.4885	-67.4555	
-55.0000	-75.3576	-51.3598	
-50.0000	-73.6965	-62.4466	
-45.0000	-75.9192	-27.9306	
-40.0000	-74.9665	-47.5280	
-35.0000	-77.8358	-4.0320	
-30.0000	-74.3727	-25.6365	
-25.0000	-79.2015	-8.7648	
-20.0000	-77.2675	24.0296	
-15.0000	-75.4197	26.6493	
-10.0000	-76.3342	38.6269	
-5.0000	-75.2360	50.2660	
0.0000	-74.9161	54.4239	
5.0000	-75.4609	57.4183	
10.0000	-75.7706	64.9669	
15.0000	-73.9927	69.0432	
20.0000	-71.7203	76.1355	
25.0000	-71.6157	94.8257	
30.0000	-74.2354	107.6593	
35.0000	-73.1960	102.4551	
40.0000	-72.6155	122.4650	
45.0000	-72.8020	115.7628	
50.0000	-71.6194	117.2861	
55.0000	-71.7853	118.7400	
60.0000	-70.6601	115.6450	
65.0000	-69.3628	111.7743	
70.0000	-69.8086	104.5272	
75.0000	-70.4650	104.4220	
80.0000	-70.3603	92.7791	
85.0000	-70.2869	92.3916	
90.0000	-70.3882	77.2539	
95.0000	-70.6620	80.9476	
100.0000	-70.9131	64.1282	
105.0000	-71.2156	63.2840	
110.0000	-70.0044	61.2496	
115.0000	-70.1334	47.5767	
120.0000	-71.7203	31.6034	
125.0000	-73.5687	25.7176	
130.0000	-74.3151	25.6046	
135.0000	-71.8200	9.3534	
140.0000	-72.2397	-17.9070	
145.0000	-74.6757	-36.2714	
150.0000	-73.1557	-31.4130	
155.0000	-72.5790	-60.1234	
160.0000	-74.4603	-63.7692	
165.0000	-72.6945	-85.9195	
170.0000	-73.3224	-92.3176	
175.0000	-74.1117	-116.4918	
180.0000	-71.9275	-137.8523	
			
			
			
[Side Lobes Table]
			
No.	Rel Ampl	Azimuth  [deg]	Absolute Ampl
1L	-2.26	50.00	-71.62
2L	-3.25	40.00	-72.62
3L	-2.25	25.00	-71.62
1R	-0.92	85.00	-70.29
2R	-0.64	110.00	-70.00
3R	-2.46	135.00	-71.82
		 	
File Name:	uwb_dipole.rff		
			
Polarizat.	0.000	Phase	
Frequency	4.800 G	 [GHz]	
Roll  	75.000	[deg]	
Ch.	Channel1		
Beam			
Switch			
Dir	0.00	dBi	
Azimuth  [deg]	Amplitude (dB)	Phase [Deg]	
-180.0000	-73.5042	-144.6701	
-175.0000	-74.2374	-152.8962	
-170.0000	-77.4421	-137.1571	
-165.0000	-79.1552	-110.0021	
-160.0000	-77.4266	-130.7218	
-155.0000	-77.7543	-126.0990	
-150.0000	-76.0511	-147.5346	
-145.0000	-77.3378	-136.2904	
-140.0000	-78.2171	176.0282	
-135.0000	-76.4379	-170.1013	
-130.0000	-74.0309	-157.5211	
-125.0000	-73.8167	-144.4438	
-120.0000	-71.9158	-141.0391	
-115.0000	-72.5658	-144.0747	
-110.0000	-70.9657	-134.5042	
-105.0000	-75.5430	-123.2298	
-100.0000	-73.9722	-116.4955	
-95.0000	-77.2150	-111.0958	
-90.0000	-74.0761	-91.3387	
-85.0000	-75.6188	-99.0801	
-80.0000	-76.6511	-93.8270	
-75.0000	-74.4686	-71.6724	
-70.0000	-76.4328	-61.0059	
-65.0000	-76.4450	-55.5821	
-60.0000	-76.1563	-73.8789	
-55.0000	-76.8981	-47.8828	
-50.0000	-76.9199	-64.8932	
-45.0000	-76.3331	-28.1631	
-40.0000	-81.7168	-58.3296	
-35.0000	-76.8564	0.8555	
-30.0000	-78.7162	-36.0374	
-25.0000	-82.1973	10.5833	
-20.0000	-78.4957	32.5587	
-15.0000	-78.5099	29.3492	
-10.0000	-78.7205	49.2700	
-5.0000	-77.7331	50.8899	
0.0000	-77.8179	49.6836	
5.0000	-79.1010	50.3086	
10.0000	-78.0449	66.3196	
15.0000	-75.2780	68.3385	
20.0000	-73.5111	77.0330	
25.0000	-75.2504	103.4928	
30.0000	-77.7934	104.3748	
35.0000	-74.0695	115.2705	
40.0000	-75.5521	126.9305	
45.0000	-74.2935	120.4119	
50.0000	-73.3889	118.5244	
55.0000	-73.7199	115.0067	
60.0000	-73.1047	112.5701	
65.0000	-72.2814	114.8299	
70.0000	-71.4626	107.5968	
75.0000	-71.7712	98.6446	
80.0000	-71.8295	89.9268	
85.0000	-72.3436	89.0725	
90.0000	-71.4190	78.3055	
95.0000	-72.9872	75.3313	
100.0000	-71.5031	56.9876	
105.0000	-71.9920	48.0908	
110.0000	-73.5297	46.6862	
115.0000	-74.1997	39.8729	
120.0000	-73.3404	32.8008	
125.0000	-73.6705	13.3945	
130.0000	-76.6612	-6.5895	
135.0000	-77.7996	1.6838	
140.0000	-75.2221	-1.5920	
145.0000	-74.3062	-40.2939	
150.0000	-77.2096	-44.5265	
155.0000	-75.0984	-58.6498	
160.0000	-76.0711	-81.1050	
165.0000	-75.4981	-83.9527	
170.0000	-76.1968	-102.3026	
175.0000	-75.4720	-132.3334	
180.0000	-73.5214	-145.2862	
			
			
			
[Side Lobes Table]
			
No.	Rel Ampl	Azimuth  [deg]	Absolute Ampl
1L	-0.95	-120.00	-71.92
2L	-5.09	-150.00	-76.05
3L	-6.46	-160.00	-77.43
1R	-3.01	-100.00	-73.97
2R	-3.11	-90.00	-74.08
3R	-3.50	-75.00	-74.47
		 	
File Name:	uwb_dipole.rff		
			
Polarizat.	0.000	Phase	
Frequency	4.800 G	 [GHz]	
Roll  	80.000	[deg]	
Ch.	Channel1		
Beam			
Switch			
Dir	0.00	dBi	
Azimuth  [deg]	Amplitude (dB)	Phase [Deg]	
-180.0000	-76.9189	-146.7607	
-175.0000	-76.1378	-153.3759	
-170.0000	-78.9092	-143.9538	
-165.0000	-83.2714	-126.8834	
-160.0000	-80.7860	-116.9509	
-155.0000	-79.8601	-128.4399	
-150.0000	-77.1287	-120.4827	
-145.0000	-81.4445	-114.5061	
-140.0000	-79.0584	-154.2271	
-135.0000	-80.9501	-144.6384	
-130.0000	-79.6385	-135.9619	
-125.0000	-81.0821	-140.6767	
-120.0000	-77.7898	-126.2668	
-115.0000	-74.6581	-143.7038	
-110.0000	-78.0179	-128.4258	
-105.0000	-76.9471	-141.2220	
-100.0000	-77.1724	-117.0664	
-95.0000	-76.7964	-130.5838	
-90.0000	-84.1962	-49.5980	
-85.0000	-79.7149	-110.0997	
-80.0000	-79.4008	-87.7622	
-75.0000	-83.7116	-105.5301	
-70.0000	-78.5190	-82.1967	
-65.0000	-81.5688	-52.0369	
-60.0000	-77.2360	-65.6004	
-55.0000	-81.4107	-66.9781	
-50.0000	-79.6993	-56.3137	
-45.0000	-85.8204	-33.2375	
-40.0000	-79.6155	-49.3638	
-35.0000	-85.0088	29.3259	
-30.0000	-78.4467	-29.0772	
-25.0000	-89.6567	-30.0845	
-20.0000	-84.7625	40.7299	
-15.0000	-80.6927	35.3755	
-10.0000	-83.5658	42.0408	
-5.0000	-81.1939	49.7024	
0.0000	-81.1596	43.3413	
5.0000	-83.1003	36.7837	
10.0000	-83.8500	56.1554	
15.0000	-79.8171	62.3919	
20.0000	-77.1684	61.5887	
25.0000	-78.1394	92.3462	
30.0000	-82.1661	124.7422	
35.0000	-78.3377	103.3237	
40.0000	-76.7408	130.1723	
45.0000	-78.1159	119.1266	
50.0000	-77.0485	113.4509	
55.0000	-76.7064	119.8498	
60.0000	-75.9262	113.3555	
65.0000	-75.2329	114.7788	
70.0000	-75.6761	103.9166	
75.0000	-75.8006	90.8806	
80.0000	-76.7593	86.9737	
85.0000	-76.8614	81.1108	
90.0000	-77.8609	67.6560	
95.0000	-76.9422	77.0756	
100.0000	-77.9627	55.7901	
105.0000	-77.3501	61.3511	
110.0000	-75.9559	62.7106	
115.0000	-75.6411	52.8080	
120.0000	-76.6163	32.7636	
125.0000	-79.7469	28.0765	
130.0000	-80.3510	41.3947	
135.0000	-77.5271	12.0102	
140.0000	-76.8479	-12.6505	
145.0000	-81.9023	-48.5427	
150.0000	-78.1686	-25.0874	
155.0000	-78.6909	-61.3875	
160.0000	-81.0927	-80.0836	
165.0000	-78.3051	-78.5249	
170.0000	-80.8799	-100.9335	
175.0000	-79.9235	-126.5519	
180.0000	-76.7377	-145.6204	
			
			
			
[Side Lobes Table]
			
No.	Rel Ampl	Azimuth  [deg]	Absolute Ampl
1L	-4.98	-130.00	-79.64
2L	-4.40	-140.00	-79.06
3L	-2.47	-150.00	-77.13
1R	-2.29	-105.00	-76.95
2R	-2.14	-95.00	-76.80
3R	-4.74	-80.00	-79.40
		 	
File Name:	uwb_dipole.rff		
			
Polarizat.	0.000	Phase	
Frequency	4.800 G	 [GHz]	
Roll  	85.000	[deg]	
Ch.	Channel1		
Beam			
Switch			
Dir	0.00	dBi	
Azimuth  [deg]	Amplitude (dB)	Phase [Deg]	
-180.0000	-80.0561	-156.9466	
-175.0000	-80.3459	-153.7967	
-170.0000	-84.0886	-146.7878	
-165.0000	-86.9772	-123.8104	
-160.0000	-80.9291	-113.8780	
-155.0000	-82.1853	-105.7850	
-150.0000	-80.3586	-109.4800	
-145.0000	-80.7224	-89.1857	
-140.0000	-88.9119	-132.6931	
-135.0000	-86.2981	-152.3053	
-130.0000	-80.5300	-144.8672	
-125.0000	-81.0282	-130.0919	
-120.0000	-77.5765	-117.4908	
-115.0000	-78.0390	-153.8720	
-110.0000	-81.4876	-122.7183	
-105.0000	-80.6329	-93.7466	
-100.0000	-82.7519	-109.3497	
-95.0000	-82.7158	-145.3214	
-90.0000	-84.3669	-71.1460	
-85.0000	-88.6147	-164.0706	
-80.0000	-79.6980	-88.3774	
-75.0000	-99.2470	-65.1957	
-70.0000	-84.0773	-90.8709	
-65.0000	-82.4217	1.5574	
-60.0000	-84.0410	-98.5549	
-55.0000	-85.8654	-84.3577	
-50.0000	-84.8186	-81.1649	
-45.0000	-87.1142	2.1300	
-40.0000	-87.3443	-112.4325	
-35.0000	-84.4040	36.4393	
-30.0000	-86.0855	-62.9679	
-25.0000	-98.6443	64.3079	
-20.0000	-85.6459	71.8290	
-15.0000	-86.6381	31.1213	
-10.0000	-89.2731	72.9808	
-5.0000	-85.6881	41.5083	
0.0000	-86.9301	19.5674	
5.0000	-87.9972	8.9041	
10.0000	-89.9773	41.3839	
15.0000	-83.0598	44.9910	
20.0000	-82.2736	56.2186	
25.0000	-86.7247	129.0362	
30.0000	-91.3502	143.3920	
35.0000	-80.6429	114.8457	
40.0000	-82.8870	138.0135	
45.0000	-82.6416	118.3177	
50.0000	-81.1545	112.2429	
55.0000	-82.9566	106.1552	
60.0000	-81.3920	109.5922	
65.0000	-81.4390	114.5456	
70.0000	-81.0072	102.5272	
75.0000	-78.3920	78.8588	
80.0000	-81.7067	76.5545	
85.0000	-82.6708	71.7006	
90.0000	-82.7787	76.8597	
95.0000	-83.2980	42.2739	
100.0000	-79.2178	42.9852	
105.0000	-80.3693	37.0372	
110.0000	-81.8471	19.6870	
115.0000	-89.9669	42.7882	
120.0000	-82.2491	31.3151	
125.0000	-82.6199	13.8552	
130.0000	-86.1036	-28.9937	
135.0000	-90.5248	-13.5106	
140.0000	-82.8982	27.0737	
145.0000	-80.9273	-46.6469	
150.0000	-89.4696	-40.2517	
155.0000	-86.2874	-53.4618	
160.0000	-83.0465	-100.9663	
165.0000	-89.1448	-64.4275	
170.0000	-86.3087	-133.7541	
175.0000	-82.5896	-153.3321	
180.0000	-80.0418	-158.3284	
			
			
			
[Side Lobes Table]
			
No.	Rel Ampl	Azimuth  [deg]	Absolute Ampl
1L	-2.95	-130.00	-80.53
2L	-2.78	-150.00	-80.36
3L	-3.35	-160.00	-80.93
1R	-3.06	-105.00	-80.63
2R	-5.14	-95.00	-82.72
3R	-2.12	-80.00	-79.70
		 	
File Name:	uwb_dipole.rff		
			
Polarizat.	0.000	Phase	
Frequency	4.800 G	 [GHz]	
Roll  	90.000	[deg]	
Ch.	Channel1		
Beam			
Switch			
Dir	0.00	dBi	
Azimuth  [deg]	Amplitude (dB)	Phase [Deg]	
-180.0000	-86.0060	162.9030	
-175.0000	-85.1841	-170.4563	
-170.0000	-91.4530	-154.9606	
-165.0000	-88.9751	162.4073	
-160.0000	-85.6953	-88.3818	
-155.0000	-84.8775	-88.6833	
-150.0000	-82.2057	-67.9187	
-145.0000	-86.5510	-58.7126	
-140.0000	-86.5889	-95.5702	
-135.0000	-86.3245	-91.9279	
-130.0000	-83.9598	-92.4233	
-125.0000	-92.1104	-75.5458	
-120.0000	-100.7311	-36.2452	
-115.0000	-82.5119	-165.1420	
-110.0000	-84.6212	131.9301	
-105.0000	-90.0337	106.2837	
-100.0000	-84.2992	148.2385	
-95.0000	-84.9750	49.0912	
-90.0000	-84.4149	69.0753	
-85.0000	-83.5521	151.1294	
-80.0000	-87.6508	103.0786	
-75.0000	-80.8686	-178.9623	
-70.0000	-93.6627	-55.8658	
-65.0000	-83.5213	120.6664	
-60.0000	-88.3933	-68.3114	
-55.0000	-95.3019	-171.0145	
-50.0000	-90.1487	-160.3880	
-45.0000	-87.0517	149.7996	
-40.0000	-93.8399	-108.0799	
-35.0000	-84.0660	138.2270	
-30.0000	-90.8344	-49.0046	
-25.0000	-87.5779	175.8970	
-20.0000	-87.8889	138.6310	
-15.0000	-89.8480	72.6633	
-10.0000	-94.0906	-156.0857	
-5.0000	-95.7830	69.4207	
0.0000	-90.1695	-44.9684	
5.0000	-86.5102	-54.9216	
10.0000	-88.3771	-87.3570	
15.0000	-93.7184	-42.1921	
20.0000	-88.1763	-5.4206	
25.0000	-97.8722	-81.0910	
30.0000	-87.2440	-128.2572	
35.0000	-101.6810	92.7825	
40.0000	-89.2755	143.8242	
45.0000	-107.6029	96.7157	
50.0000	-97.7466	46.7383	
55.0000	-109.3106	14.0959	
60.0000	-94.6643	34.7662	
65.0000	-96.8400	-101.7447	
70.0000	-98.5806	-73.8265	
75.0000	-86.6668	-3.8649	
80.0000	-92.1104	-4.3902	
85.0000	-85.2247	-53.1665	
90.0000	-92.3164	-78.1309	
95.0000	-82.6835	-103.8398	
100.0000	-84.9245	-47.2952	
105.0000	-98.9400	-167.4686	
110.0000	-89.4103	179.2511	
115.0000	-85.3491	142.6520	
120.0000	-100.5858	-43.9721	
125.0000	-94.0493	136.8555	
130.0000	-87.8052	165.5792	
135.0000	-91.9470	84.4737	
140.0000	-89.9104	1.7055	
145.0000	-86.9599	-137.0539	
150.0000	-88.6124	58.3531	
155.0000	-98.7311	-111.2187	
160.0000	-87.0989	173.3715	
165.0000	-94.1017	-18.2313	
170.0000	-87.2295	125.4274	
175.0000	-88.5596	153.2354	
180.0000	-85.5707	162.9198	
			
			
			
[Side Lobes Table]
			
No.	Rel Ampl	Azimuth  [deg]	Absolute Ampl
1L	-2.68	-85.00	-83.55
2L	-3.43	-100.00	-84.30
3L	-1.64	-115.00	-82.51
1R	-2.65	-65.00	-83.52
2R	-6.18	-45.00	-87.05
3R	-3.20	-35.00	-84.07
		 	
File Name:	uwb_dipole.rff		
			
Polarizat.	0.000	Phase	
Frequency	4.800 G	 [GHz]	
Roll  	95.000	[deg]	
Ch.	Channel1		
Beam			
Switch			
Dir	0.00	dBi	
Azimuth  [deg]	Amplitude (dB)	Phase [Deg]	
-180.0000	-86.5224	104.8209	
-175.0000	-104.0638	149.4481	
-170.0000	-89.7946	111.4072	
-165.0000	-91.9197	129.8384	
-160.0000	-82.4457	-57.6134	
-155.0000	-82.7973	-15.6363	
-150.0000	-84.7689	-35.1557	
-145.0000	-83.2439	-38.8076	
-140.0000	-85.9374	-47.7372	
-135.0000	-85.0328	-39.1653	
-130.0000	-90.2133	-61.1997	
-125.0000	-90.1511	-76.1295	
-120.0000	-83.2336	-30.5909	
-115.0000	-96.0747	-88.0048	
-110.0000	-92.2330	155.1032	
-105.0000	-87.2338	123.4397	
-100.0000	-76.2396	106.4106	
-95.0000	-78.8579	75.9543	
-90.0000	-82.3240	82.8184	
-85.0000	-83.4257	121.6395	
-80.0000	-84.8871	119.4810	
-75.0000	-80.1817	124.7094	
-70.0000	-83.5950	133.6741	
-65.0000	-79.8002	90.7816	
-60.0000	-81.0661	157.5606	
-55.0000	-85.7149	158.0698	
-50.0000	-82.1997	162.6474	
-45.0000	-82.9953	131.7872	
-40.0000	-81.7048	177.6435	
-35.0000	-82.4482	118.2296	
-30.0000	-83.8723	-153.2314	
-25.0000	-83.1675	164.8033	
-20.0000	-83.7669	153.2879	
-15.0000	-89.9291	-131.3783	
-10.0000	-85.4195	-159.0939	
-5.0000	-88.5710	-98.5298	
0.0000	-83.6255	-92.7461	
5.0000	-81.3484	-89.8262	
10.0000	-82.4721	-97.9545	
15.0000	-84.1195	-80.7586	
20.0000	-82.6387	-67.5022	
25.0000	-82.4819	-91.0078	
30.0000	-81.6995	-89.2793	
35.0000	-86.6345	-65.2797	
40.0000	-83.3743	-83.6069	
45.0000	-82.7949	-61.3309	
50.0000	-83.4100	-59.3899	
55.0000	-80.6258	-55.3839	
60.0000	-82.7123	-68.0059	
65.0000	-80.9803	-69.2830	
70.0000	-80.1442	-77.6813	
75.0000	-81.1513	-63.3141	
80.0000	-79.5482	-70.5759	
85.0000	-79.8023	-67.6380	
90.0000	-79.6881	-117.0158	
95.0000	-75.9979	-94.2034	
100.0000	-82.4273	-84.9395	
105.0000	-81.7405	-113.4917	
110.0000	-80.1846	-106.8139	
115.0000	-77.8231	-134.6780	
120.0000	-82.1833	-138.0722	
125.0000	-83.2711	-172.3371	
130.0000	-81.3394	-150.5427	
135.0000	-82.0374	176.8946	
140.0000	-80.2323	142.4853	
145.0000	-97.6234	-163.9439	
150.0000	-81.3133	134.2868	
155.0000	-82.5186	114.6947	
160.0000	-86.3950	149.5222	
165.0000	-80.3554	80.1931	
170.0000	-81.0558	105.6379	
175.0000	-83.4678	98.4000	
180.0000	-86.4259	105.8631	
			
			
			
[Side Lobes Table]
			
No.	Rel Ampl	Azimuth  [deg]	Absolute Ampl
1L	-3.55	80.00	-79.55
2L	-4.15	70.00	-80.14
3L	-4.63	55.00	-80.63
1R	-1.83	115.00	-77.82
2R	-5.34	130.00	-81.34
3R	-4.23	140.00	-80.23
		 	
File Name:	uwb_dipole.rff		
			
Polarizat.	0.000	Phase	
Frequency	4.800 G	 [GHz]	
Roll  	100.000	[deg]	
Ch.	Channel1		
Beam			
Switch			
Dir	0.00	dBi	
Azimuth  [deg]	Amplitude (dB)	Phase [Deg]	
-180.0000	-79.6956	75.8254	
-175.0000	-85.8982	54.6712	
-170.0000	-85.4012	56.3204	
-165.0000	-82.1785	113.6691	
-160.0000	-85.2943	-13.3405	
-155.0000	-80.6471	-16.5582	
-150.0000	-78.8299	5.1034	
-145.0000	-83.2862	14.1378	
-140.0000	-82.0775	-36.7431	
-135.0000	-79.8276	-24.9354	
-130.0000	-78.8138	-15.7625	
-125.0000	-76.1217	1.6845	
-120.0000	-74.2476	23.4185	
-115.0000	-78.6116	27.0131	
-110.0000	-86.1615	64.7921	
-105.0000	-79.7490	92.2446	
-100.0000	-77.4752	117.1448	
-95.0000	-72.2628	89.7977	
-90.0000	-72.4706	83.9133	
-85.0000	-75.4763	89.8068	
-80.0000	-75.0726	122.3973	
-75.0000	-78.6937	144.2630	
-70.0000	-76.5963	120.3169	
-65.0000	-76.8772	119.6079	
-60.0000	-81.3110	129.6935	
-55.0000	-77.6419	130.8339	
-50.0000	-78.3877	164.3234	
-45.0000	-77.0971	145.9363	
-40.0000	-80.6176	160.6815	
-35.0000	-76.4503	149.4809	
-30.0000	-84.8540	177.7068	
-25.0000	-78.6394	168.3824	
-20.0000	-79.7579	175.2563	
-15.0000	-85.5127	-169.6732	
-10.0000	-79.5584	-145.5789	
-5.0000	-82.9845	-132.5911	
0.0000	-79.6376	-107.0950	
5.0000	-78.2493	-95.7779	
10.0000	-77.8674	-102.4204	
15.0000	-78.7287	-99.6753	
20.0000	-78.6362	-84.4392	
25.0000	-77.4844	-84.0433	
30.0000	-77.1399	-87.0061	
35.0000	-77.4699	-77.0125	
40.0000	-78.4115	-77.1953	
45.0000	-76.6342	-71.4443	
50.0000	-76.9890	-64.5120	
55.0000	-75.7826	-67.0764	
60.0000	-76.1651	-60.0358	
65.0000	-74.4933	-73.9799	
70.0000	-75.1283	-87.8398	
75.0000	-74.8915	-79.6381	
80.0000	-74.1324	-78.3778	
85.0000	-73.2370	-80.9786	
90.0000	-75.1805	-100.1703	
95.0000	-72.4129	-110.6515	
100.0000	-74.7332	-104.2174	
105.0000	-75.8142	-126.1964	
110.0000	-74.4938	-138.6515	
115.0000	-74.9552	-164.4747	
120.0000	-76.3700	-155.1029	
125.0000	-78.1353	-169.9681	
130.0000	-75.6718	-173.4049	
135.0000	-78.1319	168.0797	
140.0000	-80.3945	151.3402	
145.0000	-78.4415	176.1941	
150.0000	-77.1107	122.7068	
155.0000	-79.1866	125.9604	
160.0000	-77.4654	134.0058	
165.0000	-78.2853	80.0369	
170.0000	-75.6219	99.6552	
175.0000	-78.1116	88.3577	
180.0000	-79.5572	78.1695	
			
			
			
[Side Lobes Table]
			
No.	Rel Ampl	Azimuth  [deg]	Absolute Ampl
1L	-1.98	-120.00	-74.25
2L	-6.57	-150.00	-78.83
3L	-9.92	-165.00	-82.18
1R	-2.81	-80.00	-75.07
2R	-4.33	-70.00	-76.60
3R	-5.38	-55.00	-77.64
		 	
File Name:	uwb_dipole.rff		
			
Polarizat.	0.000	Phase	
Frequency	4.800 G	 [GHz]	
Roll  	105.000	[deg]	
Ch.	Channel1		
Beam			
Switch			
Dir	0.00	dBi	
Azimuth  [deg]	Amplitude (dB)	Phase [Deg]	
-180.0000	-76.7275	61.4708	
-175.0000	-80.1542	34.0380	
-170.0000	-80.5231	72.3339	
-165.0000	-81.2618	94.4690	
-160.0000	-79.0794	-12.6455	
-155.0000	-77.7356	13.8492	
-150.0000	-79.8103	2.3230	
-145.0000	-78.8420	-0.1975	
-140.0000	-78.4202	-11.6345	
-135.0000	-75.7374	-3.8543	
-130.0000	-74.3137	12.7005	
-125.0000	-74.6920	14.1683	
-120.0000	-73.1626	2.8661	
-115.0000	-75.4766	12.0038	
-110.0000	-78.0517	46.2496	
-105.0000	-77.8586	54.9599	
-100.0000	-73.9571	123.3431	
-95.0000	-70.7642	95.5049	
-90.0000	-72.9647	91.8142	
-85.0000	-75.0498	99.7211	
-80.0000	-75.1393	99.8771	
-75.0000	-74.5226	133.6425	
-70.0000	-73.7197	113.8149	
-65.0000	-73.7470	118.5678	
-60.0000	-74.6403	145.1547	
-55.0000	-77.5113	139.5574	
-50.0000	-74.5891	153.4173	
-45.0000	-76.2005	141.0813	
-40.0000	-75.2921	165.4491	
-35.0000	-76.7328	143.4882	
-30.0000	-76.5447	-175.5066	
-25.0000	-77.6793	175.6652	
-20.0000	-78.5535	178.6907	
-15.0000	-78.3695	-137.2234	
-10.0000	-77.2112	-145.8907	
-5.0000	-78.1185	-116.3459	
0.0000	-76.4326	-105.9844	
5.0000	-75.4704	-100.6985	
10.0000	-75.1219	-105.8683	
15.0000	-75.4833	-98.7472	
20.0000	-74.7175	-86.0346	
25.0000	-74.5045	-83.1474	
30.0000	-74.2380	-83.7951	
35.0000	-74.6353	-76.5090	
40.0000	-74.2784	-77.6982	
45.0000	-73.2764	-70.3885	
50.0000	-73.9566	-66.8823	
55.0000	-72.4821	-64.1476	
60.0000	-73.6045	-74.8790	
65.0000	-72.7280	-77.9513	
70.0000	-71.3926	-85.9258	
75.0000	-71.5706	-85.2167	
80.0000	-71.7889	-86.9648	
85.0000	-71.2705	-86.6251	
90.0000	-71.1291	-108.8383	
95.0000	-70.2121	-107.5077	
100.0000	-72.5301	-117.3566	
105.0000	-72.2177	-128.3365	
110.0000	-73.5740	-127.4705	
115.0000	-71.7360	-134.7182	
120.0000	-72.4693	-149.4491	
125.0000	-73.5850	-175.3031	
130.0000	-74.9720	-167.0279	
135.0000	-74.4753	175.5477	
140.0000	-73.3322	151.8523	
145.0000	-78.8405	139.6221	
150.0000	-74.2677	134.3186	
155.0000	-73.6553	116.7567	
160.0000	-78.0076	115.1384	
165.0000	-72.9681	87.3918	
170.0000	-74.2114	96.2951	
175.0000	-75.8924	73.0242	
180.0000	-77.0573	61.0461	
			
			
			
[Side Lobes Table]
			
No.	Rel Ampl	Azimuth  [deg]	Absolute Ampl
1L	-1.18	70.00	-71.39
2L	-2.27	55.00	-72.48
3L	-3.06	45.00	-73.28
1R	-2.01	105.00	-72.22
2R	-1.52	115.00	-71.74
3R	-3.12	140.00	-73.33
		 	
File Name:	uwb_dipole.rff		
			
Polarizat.	0.000	Phase	
Frequency	4.800 G	 [GHz]	
Roll  	110.000	[deg]	
Ch.	Channel1		
Beam			
Switch			
Dir	0.00	dBi	
Azimuth  [deg]	Amplitude (dB)	Phase [Deg]	
-180.0000	-73.6360	58.6679	
-175.0000	-75.8834	40.2151	
-170.0000	-77.8975	43.7160	
-165.0000	-77.1636	99.1193	
-160.0000	-79.0331	32.8891	
-155.0000	-78.5500	9.2019	
-150.0000	-76.3220	10.9278	
-145.0000	-79.1716	7.9836	
-140.0000	-76.5424	-15.5215	
-135.0000	-74.2461	-3.8305	
-130.0000	-73.0596	8.1618	
-125.0000	-70.6107	7.6751	
-120.0000	-69.6373	20.8569	
-115.0000	-71.9236	35.4903	
-110.0000	-72.2875	49.0649	
-105.0000	-73.5662	47.0345	
-100.0000	-78.1214	97.3825	
-95.0000	-69.0103	93.5609	
-90.0000	-70.0527	94.8826	
-85.0000	-69.2973	96.0852	
-80.0000	-71.4069	110.7121	
-75.0000	-75.1344	129.2131	
-70.0000	-71.6565	119.4523	
-65.0000	-72.2585	122.7442	
-60.0000	-74.4461	128.9684	
-55.0000	-73.6819	131.3596	
-50.0000	-73.0652	153.9943	
-45.0000	-74.3936	148.4373	
-40.0000	-74.7600	156.0927	
-35.0000	-73.6202	152.3506	
-30.0000	-77.1208	179.8653	
-25.0000	-75.1779	171.4812	
-20.0000	-76.1146	-173.0059	
-15.0000	-78.0699	-152.2869	
-10.0000	-74.5136	-138.7424	
-5.0000	-76.3993	-127.4701	
0.0000	-74.5900	-110.0951	
5.0000	-73.7360	-103.9397	
10.0000	-73.1451	-105.7647	
15.0000	-73.0080	-106.4115	
20.0000	-72.8141	-94.5308	
25.0000	-72.3030	-84.4859	
30.0000	-72.6475	-84.9446	
35.0000	-72.0531	-82.2518	
40.0000	-72.5752	-77.0607	
45.0000	-71.7468	-74.1364	
50.0000	-71.7557	-67.6297	
55.0000	-71.1195	-70.6856	
60.0000	-71.9235	-67.4624	
65.0000	-69.5656	-80.3565	
70.0000	-69.5957	-92.5524	
75.0000	-69.7953	-85.2491	
80.0000	-69.9608	-88.7400	
85.0000	-68.4065	-93.9796	
90.0000	-69.3945	-106.5582	
95.0000	-69.0873	-116.5752	
100.0000	-70.5115	-115.9910	
105.0000	-70.3804	-134.7340	
110.0000	-69.6944	-139.1305	
115.0000	-68.8066	-152.6608	
120.0000	-71.2917	-166.5803	
125.0000	-73.0424	-170.2155	
130.0000	-71.3558	-172.2368	
135.0000	-72.3842	167.9645	
140.0000	-73.9591	150.5762	
145.0000	-73.9672	161.9765	
150.0000	-72.0807	127.4306	
155.0000	-72.7339	114.3027	
160.0000	-72.8685	124.2194	
165.0000	-72.6573	85.1296	
170.0000	-71.1417	92.8022	
175.0000	-73.7550	78.3053	
180.0000	-73.5254	58.1050	
			
			
			
[Side Lobes Table]
			
No.	Rel Ampl	Azimuth  [deg]	Absolute Ampl
1L	-1.16	65.00	-69.57
2L	-2.71	55.00	-71.12
3L	-3.34	45.00	-71.75
1R	-0.68	95.00	-69.09
2R	-0.40	115.00	-68.81
3R	-2.95	130.00	-71.36
		 	
File Name:	uwb_dipole.rff		
			
Polarizat.	0.000	Phase	
Frequency	4.800 G	 [GHz]	
Roll  	115.000	[deg]	
Ch.	Channel1		
Beam			
Switch			
Dir	0.00	dBi	
Azimuth  [deg]	Amplitude (dB)	Phase [Deg]	
-180.0000	-72.1527	50.8446	
-175.0000	-74.4099	34.3038	
-170.0000	-76.7191	70.2312	
-165.0000	-75.5890	80.7663	
-160.0000	-76.5837	18.0066	
-155.0000	-77.5252	36.9728	
-150.0000	-78.5436	-2.0669	
-145.0000	-77.1989	6.0560	
-140.0000	-76.1214	-2.0750	
-135.0000	-73.8812	4.8227	
-130.0000	-71.6014	23.2228	
-125.0000	-72.3255	25.3602	
-120.0000	-71.7689	18.8003	
-115.0000	-70.6127	33.4359	
-110.0000	-70.5694	32.0579	
-105.0000	-73.8628	57.6029	
-100.0000	-72.2449	100.0041	
-95.0000	-71.0756	98.6962	
-90.0000	-69.1556	101.9776	
-85.0000	-71.4485	100.4055	
-80.0000	-71.2290	99.1030	
-75.0000	-71.7778	127.9066	
-70.0000	-70.5897	119.1615	
-65.0000	-70.7679	122.4181	
-60.0000	-71.7301	136.8900	
-55.0000	-72.8896	148.3300	
-50.0000	-72.8846	141.8520	
-45.0000	-72.2897	147.6710	
-40.0000	-72.8061	164.5614	
-35.0000	-74.6181	158.0723	
-30.0000	-73.1917	178.8112	
-25.0000	-75.0642	-173.7063	
-20.0000	-75.1060	-167.9216	
-15.0000	-73.6963	-135.6666	
-10.0000	-73.2081	-140.1800	
-5.0000	-73.7839	-117.9195	
0.0000	-72.6662	-110.9962	
5.0000	-72.1989	-104.1604	
10.0000	-71.3743	-108.8468	
15.0000	-71.2180	-107.3657	
20.0000	-70.8399	-94.2570	
25.0000	-70.9429	-84.3562	
30.0000	-70.9348	-87.0495	
35.0000	-70.4964	-81.8311	
40.0000	-70.5678	-78.3949	
45.0000	-70.0881	-73.3808	
50.0000	-70.4546	-72.2818	
55.0000	-69.4281	-72.3081	
60.0000	-69.8212	-83.9100	
65.0000	-68.7586	-82.4239	
70.0000	-67.7139	-87.5054	
75.0000	-68.5939	-92.1896	
80.0000	-68.3502	-99.8751	
85.0000	-67.4362	-95.4865	
90.0000	-67.6482	-110.9258	
95.0000	-66.8479	-115.0615	
100.0000	-68.6512	-129.5391	
105.0000	-68.4783	-136.6856	
110.0000	-69.6702	-141.1007	
115.0000	-69.2825	-137.7039	
120.0000	-68.4067	-157.8790	
125.0000	-69.5333	179.0338	
130.0000	-71.4417	175.6259	
135.0000	-71.4057	170.9055	
140.0000	-69.7760	146.5335	
145.0000	-72.5226	129.5210	
150.0000	-71.4195	129.0088	
155.0000	-69.5704	116.4669	
160.0000	-73.3950	105.4628	
165.0000	-69.4611	87.9013	
170.0000	-70.8187	90.8237	
175.0000	-72.0063	64.5510	
180.0000	-72.1465	50.4194	
			
			
			
[Side Lobes Table]
			
No.	Rel Ampl	Azimuth  [deg]	Absolute Ampl
1L	-0.59	85.00	-67.44
2L	-0.87	70.00	-67.71
3L	-2.58	55.00	-69.43
1R	-1.63	105.00	-68.48
2R	-1.56	120.00	-68.41
3R	-2.93	140.00	-69.78
		 	
File Name:	uwb_dipole.rff		
			
Polarizat.	0.000	Phase	
Frequency	4.800 G	 [GHz]	
Roll  	120.000	[deg]	
Ch.	Channel1		
Beam			
Switch			
Dir	0.00	dBi	
Azimuth  [deg]	Amplitude (dB)	Phase [Deg]	
-180.0000	-70.0892	54.2005	
-175.0000	-71.8433	36.3351	
-170.0000	-74.2866	45.9052	
-165.0000	-73.7309	87.3303	
-160.0000	-73.9152	50.3407	
-155.0000	-77.8226	45.2676	
-150.0000	-76.1245	32.4665	
-145.0000	-82.8252	37.3901	
-140.0000	-77.0226	9.4649	
-135.0000	-74.1997	22.6737	
-130.0000	-72.4387	32.4726	
-125.0000	-70.2760	21.0122	
-120.0000	-68.7592	29.5447	
-115.0000	-69.4524	47.1337	
-110.0000	-69.3299	48.3658	
-105.0000	-71.6635	58.4806	
-100.0000	-71.9677	63.9804	
-95.0000	-69.7969	88.9917	
-90.0000	-67.2385	95.0594	
-85.0000	-68.1624	101.0892	
-80.0000	-69.0243	105.7579	
-75.0000	-71.4542	116.9907	
-70.0000	-70.5115	123.3135	
-65.0000	-69.7267	119.2757	
-60.0000	-70.6526	127.9870	
-55.0000	-71.7733	142.4381	
-50.0000	-71.1540	141.9512	
-45.0000	-71.3422	154.8856	
-40.0000	-72.6025	157.4470	
-35.0000	-72.2080	157.9497	
-30.0000	-73.0616	-177.5524	
-25.0000	-73.5244	-178.4352	
-20.0000	-72.9102	-165.5049	
-15.0000	-73.7021	-140.1192	
-10.0000	-71.3573	-138.6985	
-5.0000	-72.7059	-125.5364	
0.0000	-71.4931	-114.9194	
5.0000	-71.1810	-108.4577	
10.0000	-70.3613	-108.7136	
15.0000	-69.6929	-110.9530	
20.0000	-69.4340	-103.1678	
25.0000	-69.4149	-89.7691	
30.0000	-69.9470	-89.6014	
35.0000	-69.0742	-89.3047	
40.0000	-69.4455	-84.6029	
45.0000	-69.2292	-82.7847	
50.0000	-69.0612	-78.6822	
55.0000	-68.6455	-79.4969	
60.0000	-68.9735	-78.6388	
65.0000	-66.8555	-84.0560	
70.0000	-66.8704	-94.4105	
75.0000	-67.6184	-92.9396	
80.0000	-67.6501	-101.8747	
85.0000	-66.2227	-104.1600	
90.0000	-67.2118	-115.1272	
95.0000	-66.8286	-123.0087	
100.0000	-68.4931	-125.6847	
105.0000	-67.7729	-136.8098	
110.0000	-66.8691	-146.0024	
115.0000	-66.4781	-159.5298	
120.0000	-67.8779	-178.3373	
125.0000	-70.2912	177.7382	
130.0000	-69.8699	179.8749	
135.0000	-69.0474	165.7927	
140.0000	-69.9962	142.8377	
145.0000	-71.2480	140.9066	
150.0000	-69.1718	131.1548	
155.0000	-69.1752	110.4788	
160.0000	-70.4466	117.6490	
165.0000	-69.3436	85.3415	
170.0000	-68.6505	91.7118	
175.0000	-70.9401	72.4631	
180.0000	-70.1479	54.0538	
			
			
			
[Side Lobes Table]
			
No.	Rel Ampl	Azimuth  [deg]	Absolute Ampl
1L	-0.63	65.00	-66.86
2L	-2.42	55.00	-68.65
3L	-2.85	35.00	-69.07
1R	-0.61	95.00	-66.83
2R	-0.26	115.00	-66.48
3R	-2.82	135.00	-69.05
		 	
File Name:	uwb_dipole.rff		
			
Polarizat.	0.000	Phase	
Frequency	4.800 G	 [GHz]	
Roll  	125.000	[deg]	
Ch.	Channel1		
Beam			
Switch			
Dir	0.00	dBi	
Azimuth  [deg]	Amplitude (dB)	Phase [Deg]	
-180.0000	-69.4092	47.3951	
-175.0000	-71.2088	33.6966	
-170.0000	-74.0280	65.9738	
-165.0000	-71.9875	75.5885	
-160.0000	-73.5892	43.8508	
-155.0000	-73.5826	74.1270	
-150.0000	-78.1673	42.6766	
-145.0000	-74.7893	58.9195	
-140.0000	-73.5577	42.9379	
-135.0000	-71.2127	37.9895	
-130.0000	-69.1248	37.5481	
-125.0000	-71.1462	35.8314	
-120.0000	-72.3297	33.4839	
-115.0000	-69.6157	43.6395	
-110.0000	-68.4219	42.3017	
-105.0000	-68.8680	64.3923	
-100.0000	-70.9997	91.0804	
-95.0000	-68.9785	98.2698	
-90.0000	-69.3042	98.3852	
-85.0000	-68.8518	98.6169	
-80.0000	-69.4297	108.8029	
-75.0000	-70.8541	108.7376	
-70.0000	-68.1588	121.2492	
-65.0000	-69.6295	127.3138	
-60.0000	-70.6083	132.6795	
-55.0000	-70.1028	144.3383	
-50.0000	-72.2130	149.4059	
-45.0000	-70.9168	150.2157	
-40.0000	-71.1093	166.3931	
-35.0000	-72.9193	174.0180	
-30.0000	-71.8580	-178.9584	
-25.0000	-72.2088	-162.3469	
-20.0000	-73.0205	-154.6269	
-15.0000	-70.4846	-132.9459	
-10.0000	-70.7000	-136.3971	
-5.0000	-70.8990	-119.7500	
0.0000	-70.2944	-114.4037	
5.0000	-69.9362	-109.8282	
10.0000	-68.8783	-112.3756	
15.0000	-68.2553	-113.1670	
20.0000	-68.1746	-99.5117	
25.0000	-68.6988	-90.4359	
30.0000	-68.6162	-94.2996	
35.0000	-67.9293	-90.5274	
40.0000	-68.3417	-87.4767	
45.0000	-68.0834	-86.0993	
50.0000	-68.1797	-84.3491	
55.0000	-67.5928	-85.6206	
60.0000	-67.4878	-91.5198	
65.0000	-66.8771	-90.2163	
70.0000	-66.0335	-92.5745	
75.0000	-67.0823	-101.4772	
80.0000	-66.2353	-108.4880	
85.0000	-66.2222	-104.4055	
90.0000	-65.9241	-118.4962	
95.0000	-65.2662	-123.4855	
100.0000	-66.2942	-136.2264	
105.0000	-66.6764	-150.2834	
110.0000	-67.8675	-148.8334	
115.0000	-68.0196	-147.7982	
120.0000	-66.5745	-167.4677	
125.0000	-67.0497	169.9602	
130.0000	-68.7936	158.7165	
135.0000	-69.6904	156.2547	
140.0000	-68.4620	145.5622	
145.0000	-68.4170	123.4110	
150.0000	-69.4965	120.9461	
155.0000	-67.1749	113.8998	
160.0000	-70.2118	100.4811	
165.0000	-67.3246	87.2121	
170.0000	-68.7219	88.2219	
175.0000	-69.5409	60.8523	
180.0000	-69.5975	46.4481	
			
			
			
[Side Lobes Table]
			
No.	Rel Ampl	Azimuth  [deg]	Absolute Ampl
1L	-0.77	70.00	-66.03
2L	-2.82	45.00	-68.08
3L	-2.66	35.00	-67.93
1R	-1.31	120.00	-66.57
2R	-3.15	145.00	-68.42
3R	-1.91	155.00	-67.17
		 	
File Name:	uwb_dipole.rff		
			
Polarizat.	0.000	Phase	
Frequency	4.800 G	 [GHz]	
Roll  	130.000	[deg]	
Ch.	Channel1		
Beam			
Switch			
Dir	0.00	dBi	
Azimuth  [deg]	Amplitude (dB)	Phase [Deg]	
-180.0000	-68.1282	50.0908	
-175.0000	-69.3488	36.4233	
-170.0000	-71.9938	45.5850	
-165.0000	-71.6456	83.2022	
-160.0000	-70.7085	53.6059	
-155.0000	-72.6301	71.8776	
-150.0000	-71.1827	57.8350	
-145.0000	-74.2118	74.7747	
-140.0000	-71.0891	37.8218	
-135.0000	-69.8728	36.4506	
-130.0000	-69.9788	35.2620	
-125.0000	-70.6668	25.4863	
-120.0000	-69.3136	42.5827	
-115.0000	-67.3832	51.2634	
-110.0000	-68.1862	58.0162	
-105.0000	-69.7967	67.8183	
-100.0000	-70.7136	51.6852	
-95.0000	-68.3778	84.0679	
-90.0000	-67.1313	89.4066	
-85.0000	-67.2322	101.5921	
-80.0000	-68.5707	112.2047	
-75.0000	-69.8814	102.1316	
-70.0000	-68.7146	123.5153	
-65.0000	-70.1462	120.8117	
-60.0000	-69.0676	126.0715	
-55.0000	-70.0499	146.5965	
-50.0000	-71.0598	146.1156	
-45.0000	-70.9228	155.9601	
-40.0000	-70.8551	163.6300	
-35.0000	-72.1459	170.5695	
-30.0000	-71.0116	-177.2299	
-25.0000	-71.9028	-164.0522	
-20.0000	-71.7885	-157.0538	
-15.0000	-70.4613	-132.2053	
-10.0000	-69.1196	-135.7719	
-5.0000	-70.1423	-125.4887	
0.0000	-69.4334	-116.2861	
5.0000	-69.3809	-112.4232	
10.0000	-68.4738	-111.5551	
15.0000	-67.4126	-114.5469	
20.0000	-67.0308	-109.8726	
25.0000	-67.5738	-96.3389	
30.0000	-68.1585	-96.9870	
35.0000	-67.2644	-97.6185	
40.0000	-67.6138	-93.9403	
45.0000	-67.7579	-93.2226	
50.0000	-67.4818	-90.5512	
55.0000	-67.6163	-91.5329	
60.0000	-67.6147	-91.6713	
65.0000	-65.6717	-92.1673	
70.0000	-65.7921	-100.7119	
75.0000	-66.8034	-105.8890	
80.0000	-66.2105	-114.0211	
85.0000	-65.8262	-111.0117	
90.0000	-66.1744	-127.9819	
95.0000	-65.8954	-132.6741	
100.0000	-67.8440	-138.7051	
105.0000	-67.1350	-148.2139	
110.0000	-65.7127	-150.7618	
115.0000	-65.0949	-170.2417	
120.0000	-66.4038	168.7091	
125.0000	-68.7274	163.4222	
130.0000	-68.8207	165.3214	
135.0000	-67.8862	153.3082	
140.0000	-67.9556	138.3561	
145.0000	-68.1508	125.0028	
150.0000	-67.7504	125.4638	
155.0000	-66.5944	106.3610	
160.0000	-68.4866	108.7022	
165.0000	-67.2599	83.9383	
170.0000	-67.0574	89.7152	
175.0000	-69.1331	67.5705	
180.0000	-68.1704	49.9365	
			
			
			
[Side Lobes Table]
			
No.	Rel Ampl	Azimuth  [deg]	Absolute Ampl
1L	-0.80	95.00	-65.90
2L	-0.73	85.00	-65.83
3L	-0.58	65.00	-65.67
1R	-2.79	135.00	-67.89
2R	-1.50	155.00	-66.59
3R	-1.96	170.00	-67.06
		 	
File Name:	uwb_dipole.rff		
			
Polarizat.	0.000	Phase	
Frequency	4.800 G	 [GHz]	
Roll  	135.000	[deg]	
Ch.	Channel1		
Beam			
Switch			
Dir	0.00	dBi	
Azimuth  [deg]	Amplitude (dB)	Phase [Deg]	
-180.0000	-67.6233	45.6344	
-175.0000	-69.3309	35.8227	
-170.0000	-72.3759	65.9828	
-165.0000	-70.2996	73.5959	
-160.0000	-71.2786	50.8683	
-155.0000	-69.2045	75.8694	
-150.0000	-72.3723	52.1482	
-145.0000	-70.5743	62.3830	
-140.0000	-71.3348	34.8862	
-135.0000	-70.7530	32.4490	
-130.0000	-69.6747	42.4598	
-125.0000	-70.9930	58.8290	
-120.0000	-70.4697	49.1615	
-115.0000	-69.2342	39.7990	
-110.0000	-67.1293	52.4583	
-105.0000	-67.4722	62.8860	
-100.0000	-70.1892	95.5662	
-95.0000	-69.7326	88.9301	
-90.0000	-69.5296	105.3437	
-85.0000	-69.5138	98.8387	
-80.0000	-68.1094	104.4170	
-75.0000	-70.3757	117.9770	
-70.0000	-68.8048	116.9887	
-65.0000	-68.6058	130.4906	
-60.0000	-70.5763	141.0002	
-55.0000	-70.8399	144.6765	
-50.0000	-70.6363	151.6747	
-45.0000	-70.5013	166.8365	
-40.0000	-71.4727	168.4895	
-35.0000	-70.4028	-171.3650	
-30.0000	-71.4744	-166.8029	
-25.0000	-70.1561	-155.9438	
-20.0000	-71.0658	-140.6212	
-15.0000	-68.2010	-131.8347	
-10.0000	-68.9158	-132.7039	
-5.0000	-68.7786	-118.9364	
0.0000	-68.4642	-116.2736	
5.0000	-68.4993	-112.4329	
10.0000	-67.2600	-114.1331	
15.0000	-66.1858	-115.9269	
20.0000	-66.2419	-108.1617	
25.0000	-67.2597	-98.3764	
30.0000	-67.2192	-102.5142	
35.0000	-66.5564	-99.4418	
40.0000	-67.2549	-97.5467	
45.0000	-67.2104	-100.3460	
50.0000	-67.1432	-98.5628	
55.0000	-66.5881	-98.7600	
60.0000	-66.5619	-104.4633	
65.0000	-66.6861	-99.6876	
70.0000	-65.9278	-106.4818	
75.0000	-65.7147	-113.5166	
80.0000	-65.9087	-117.5637	
85.0000	-66.3482	-117.9524	
90.0000	-65.2414	-126.9030	
95.0000	-64.8847	-130.9227	
100.0000	-65.6996	-153.3513	
105.0000	-65.6507	-160.6640	
110.0000	-68.1618	-166.3342	
115.0000	-67.2703	-157.0836	
120.0000	-65.7105	-177.9163	
125.0000	-65.9839	158.0753	
130.0000	-67.8561	145.5739	
135.0000	-67.9615	142.0158	
140.0000	-67.2941	129.4771	
145.0000	-66.5049	120.3988	
150.0000	-67.1608	109.8582	
155.0000	-65.6097	111.1158	
160.0000	-68.4680	93.9409	
165.0000	-65.7146	86.3467	
170.0000	-67.7739	85.9184	
175.0000	-67.7816	55.1012	
180.0000	-67.6825	44.7262	
			
			
			
[Side Lobes Table]
			
No.	Rel Ampl	Azimuth  [deg]	Absolute Ampl
1L	-0.83	75.00	-65.71
2L	-1.68	60.00	-66.56
3L	-1.67	35.00	-66.56
1R	-0.77	105.00	-65.65
2R	-0.83	120.00	-65.71
3R	-1.62	145.00	-66.50
		 	
File Name:	uwb_dipole.rff		
			
Polarizat.	0.000	Phase	
Frequency	4.800 G	 [GHz]	
Roll  	140.000	[deg]	
Ch.	Channel1		
Beam			
Switch			
Dir	0.00	dBi	
Azimuth  [deg]	Amplitude (dB)	Phase [Deg]	
-180.0000	-66.6873	47.8646	
-175.0000	-67.6823	37.8231	
-170.0000	-70.8217	52.5314	
-165.0000	-70.3750	83.8813	
-160.0000	-69.7136	58.8327	
-155.0000	-70.1769	80.5851	
-150.0000	-68.2116	62.7735	
-145.0000	-72.2109	79.8596	
-140.0000	-71.4421	43.7098	
-135.0000	-70.9401	46.2905	
-130.0000	-71.0772	50.4409	
-125.0000	-71.8948	42.7286	
-120.0000	-68.2225	47.0887	
-115.0000	-67.5921	51.6108	
-110.0000	-67.6551	70.9101	
-105.0000	-70.5812	61.7501	
-100.0000	-71.7187	57.6958	
-95.0000	-69.8369	71.0143	
-90.0000	-67.5417	97.8336	
-85.0000	-68.6628	100.8976	
-80.0000	-68.0232	112.0403	
-75.0000	-71.2655	114.4600	
-70.0000	-70.1517	117.4473	
-65.0000	-69.6023	126.5407	
-60.0000	-70.0138	134.9731	
-55.0000	-71.2663	142.8089	
-50.0000	-69.6874	157.7278	
-45.0000	-71.9784	176.0311	
-40.0000	-70.3099	166.1902	
-35.0000	-70.7697	-167.8692	
-30.0000	-70.9226	-167.9552	
-25.0000	-69.6311	-154.1371	
-20.0000	-70.4708	-143.0168	
-15.0000	-68.0890	-129.2281	
-10.0000	-67.8126	-132.5706	
-5.0000	-68.3432	-123.3114	
0.0000	-67.9150	-118.2160	
5.0000	-68.1606	-115.7281	
10.0000	-67.1972	-114.1866	
15.0000	-65.9322	-117.4200	
20.0000	-65.2733	-113.5787	
25.0000	-66.0687	-105.3567	
30.0000	-66.9691	-107.7164	
35.0000	-66.0835	-108.2935	
40.0000	-66.5748	-106.7616	
45.0000	-66.5786	-109.0049	
50.0000	-66.1944	-106.1574	
55.0000	-66.5096	-105.3973	
60.0000	-67.2494	-104.4040	
65.0000	-66.0542	-107.2434	
70.0000	-65.2323	-117.9164	
75.0000	-66.1474	-120.3556	
80.0000	-66.6898	-129.8961	
85.0000	-66.0859	-127.3302	
90.0000	-66.0587	-144.7344	
95.0000	-66.0251	-144.7530	
100.0000	-68.4575	-160.0975	
105.0000	-66.6903	-162.1247	
110.0000	-66.1520	-163.9661	
115.0000	-64.5484	-175.8960	
120.0000	-65.1823	154.7431	
125.0000	-67.9883	141.7232	
130.0000	-68.4739	149.8477	
135.0000	-66.7415	140.8721	
140.0000	-66.7423	124.6801	
145.0000	-66.5295	120.0707	
150.0000	-66.1797	113.3889	
155.0000	-64.9384	104.1968	
160.0000	-67.4119	106.1376	
165.0000	-65.9648	81.8315	
170.0000	-66.3983	89.0934	
175.0000	-67.9682	63.5978	
180.0000	-66.7158	49.3690	
			
			
			
[Side Lobes Table]
			
No.	Rel Ampl	Azimuth  [deg]	Absolute Ampl
1L	-1.48	95.00	-66.03
2L	-0.68	70.00	-65.23
3L	-1.65	50.00	-66.19
1R	-2.19	135.00	-66.74
2R	-0.39	155.00	-64.94
3R	-1.42	165.00	-65.96
		 	
File Name:	uwb_dipole.rff		
			
Polarizat.	0.000	Phase	
Frequency	4.800 G	 [GHz]	
Roll  	145.000	[deg]	
Ch.	Channel1		
Beam			
Switch			
Dir	0.00	dBi	
Azimuth  [deg]	Amplitude (dB)	Phase [Deg]	
-180.0000	-66.2542	43.1039	
-175.0000	-67.8127	38.2546	
-170.0000	-70.5814	70.5691	
-165.0000	-68.7936	79.0306	
-160.0000	-70.6744	64.7800	
-155.0000	-66.9050	85.6324	
-150.0000	-69.5015	63.6382	
-145.0000	-68.8969	76.2437	
-140.0000	-71.8109	59.7761	
-135.0000	-72.2401	46.8763	
-130.0000	-70.3344	61.4026	
-125.0000	-69.7087	75.5202	
-120.0000	-71.8408	50.4990	
-115.0000	-71.2276	44.9563	
-110.0000	-67.6219	49.0285	
-105.0000	-69.3016	69.5369	
-100.0000	-73.0281	94.9171	
-95.0000	-71.0484	113.2801	
-90.0000	-71.3715	106.6629	
-85.0000	-69.9896	104.9796	
-80.0000	-70.5700	109.5777	
-75.0000	-70.9048	117.0845	
-70.0000	-70.0732	132.6215	
-65.0000	-70.5068	138.5166	
-60.0000	-70.4758	142.8842	
-55.0000	-70.9036	167.6496	
-50.0000	-72.5627	154.2936	
-45.0000	-68.9362	179.6428	
-40.0000	-71.8434	-168.9296	
-35.0000	-69.6110	-163.3177	
-30.0000	-69.8847	-149.1135	
-25.0000	-69.1668	-147.4582	
-20.0000	-68.6851	-130.3334	
-15.0000	-66.8470	-130.6143	
-10.0000	-67.5350	-128.3236	
-5.0000	-67.4125	-120.6462	
0.0000	-67.4302	-117.7369	
5.0000	-67.4710	-115.7148	
10.0000	-66.2114	-117.4120	
15.0000	-64.8690	-119.4698	
20.0000	-64.7179	-113.8809	
25.0000	-65.8558	-108.6942	
30.0000	-65.7240	-114.6362	
35.0000	-65.3383	-111.0069	
40.0000	-65.7700	-112.1565	
45.0000	-65.6487	-111.7460	
50.0000	-66.4182	-109.7013	
55.0000	-66.7499	-113.5794	
60.0000	-66.3576	-126.7691	
65.0000	-66.0359	-119.9802	
70.0000	-65.8432	-118.8303	
75.0000	-66.2053	-131.3256	
80.0000	-66.0122	-134.8285	
85.0000	-66.8492	-136.7952	
90.0000	-65.3031	-138.5067	
95.0000	-65.8251	-149.3803	
100.0000	-64.9873	-167.7762	
105.0000	-65.6658	-179.2802	
110.0000	-67.7606	172.4984	
115.0000	-67.6910	-173.9222	
120.0000	-65.8817	167.2987	
125.0000	-64.8712	146.2667	
130.0000	-66.1467	129.1107	
135.0000	-67.0185	124.1867	
140.0000	-65.7170	121.6037	
145.0000	-65.5698	109.8356	
150.0000	-65.4037	102.8736	
155.0000	-64.4514	108.5023	
160.0000	-67.2669	87.9767	
165.0000	-64.8100	85.9770	
170.0000	-67.5332	80.2657	
175.0000	-66.5680	52.5386	
180.0000	-66.2112	42.5550	
			
			
			
[Side Lobes Table]
			
No.	Rel Ampl	Azimuth  [deg]	Absolute Ampl
1L	-0.42	125.00	-64.87
2L	-0.54	100.00	-64.99
3L	-0.85	90.00	-65.30
1R	-0.36	165.00	-64.81
		 	
File Name:	uwb_dipole.rff		
			
Polarizat.	0.000	Phase	
Frequency	4.800 G	 [GHz]	
Roll  	150.000	[deg]	
Ch.	Channel1		
Beam			
Switch			
Dir	0.00	dBi	
Azimuth  [deg]	Amplitude (dB)	Phase [Deg]	
-180.0000	-65.6640	45.3467	
-175.0000	-66.3835	37.2243	
-170.0000	-69.0084	52.9506	
-165.0000	-68.2729	86.5087	
-160.0000	-68.6202	69.6896	
-155.0000	-68.2466	88.5585	
-150.0000	-65.7104	65.0889	
-145.0000	-69.0908	83.3735	
-140.0000	-70.4819	68.2022	
-135.0000	-71.4468	71.1182	
-130.0000	-70.6203	88.1431	
-125.0000	-71.7273	59.3687	
-120.0000	-69.8086	43.5307	
-115.0000	-69.2252	71.0966	
-110.0000	-69.0261	72.7732	
-105.0000	-75.7578	78.7169	
-100.0000	-74.9868	56.9705	
-95.0000	-73.4834	95.3346	
-90.0000	-69.1617	99.3438	
-85.0000	-69.3706	109.5572	
-80.0000	-70.5779	125.4788	
-75.0000	-73.4270	114.8030	
-70.0000	-72.0029	139.0210	
-65.0000	-71.6642	137.0838	
-60.0000	-70.7942	146.3212	
-55.0000	-71.9686	168.1787	
-50.0000	-71.3154	164.9342	
-45.0000	-70.5082	-162.6839	
-40.0000	-71.0882	-175.5527	
-35.0000	-69.3623	-156.8046	
-30.0000	-69.8361	-146.1228	
-25.0000	-68.3733	-146.0872	
-20.0000	-68.5189	-132.5619	
-15.0000	-66.4223	-128.3053	
-10.0000	-66.7184	-128.7634	
-5.0000	-67.0175	-121.9010	
0.0000	-66.8866	-119.0121	
5.0000	-67.0942	-116.6584	
10.0000	-66.4890	-117.0793	
15.0000	-65.0220	-120.1225	
20.0000	-64.0438	-117.7060	
25.0000	-64.7832	-111.0671	
30.0000	-65.3322	-116.8739	
35.0000	-64.5855	-116.5222	
40.0000	-65.3596	-114.3771	
45.0000	-65.4879	-117.7620	
50.0000	-66.2255	-118.0338	
55.0000	-66.3298	-125.5577	
60.0000	-66.5100	-129.8480	
65.0000	-65.0988	-125.3378	
70.0000	-65.3513	-132.0622	
75.0000	-66.2197	-144.1433	
80.0000	-66.4907	-148.8338	
85.0000	-66.0837	-151.2057	
90.0000	-66.4341	-160.2976	
95.0000	-66.2325	-173.2159	
100.0000	-67.6046	178.9145	
105.0000	-66.7871	173.5213	
110.0000	-66.2887	177.1679	
115.0000	-64.3293	165.2659	
120.0000	-63.9649	139.5381	
125.0000	-66.4351	125.0861	
130.0000	-67.5985	130.4345	
135.0000	-66.2208	126.6774	
140.0000	-65.0439	116.9490	
145.0000	-65.8396	108.0024	
150.0000	-64.9973	103.8358	
155.0000	-63.7114	100.4752	
160.0000	-66.9960	98.4063	
165.0000	-64.7046	80.5669	
170.0000	-66.0373	87.3641	
175.0000	-66.9740	57.3549	
180.0000	-65.6670	45.8265	
			
			
			
[Side Lobes Table]
			
No.	Rel Ampl	Azimuth  [deg]	Absolute Ampl
1L	-1.33	140.00	-65.04
2L	-0.25	120.00	-63.96
3L	-2.52	95.00	-66.23
1R	-0.99	165.00	-64.70
		 	
File Name:	uwb_dipole.rff		
			
Polarizat.	0.000	Phase	
Frequency	4.800 G	 [GHz]	
Roll  	155.000	[deg]	
Ch.	Channel1		
Beam			
Switch			
Dir	0.00	dBi	
Azimuth  [deg]	Amplitude (dB)	Phase [Deg]	
-180.0000	-65.3755	41.4040	
-175.0000	-66.7336	39.8041	
-170.0000	-68.7825	71.4744	
-165.0000	-66.9242	83.9763	
-160.0000	-69.0922	76.4474	
-155.0000	-65.4579	87.4329	
-150.0000	-67.7952	64.5092	
-145.0000	-67.3373	85.8573	
-140.0000	-69.5862	91.8340	
-135.0000	-70.4790	83.4438	
-130.0000	-68.3261	75.2796	
-125.0000	-71.7229	95.6942	
-120.0000	-75.9696	93.6471	
-115.0000	-73.3233	49.9868	
-110.0000	-72.6898	66.5555	
-105.0000	-71.8179	89.1752	
-100.0000	-71.4641	139.7522	
-95.0000	-71.4433	127.5650	
-90.0000	-73.1559	132.8169	
-85.0000	-74.3662	122.2293	
-80.0000	-72.5318	124.7597	
-75.0000	-72.6427	154.6433	
-70.0000	-72.4494	151.8462	
-65.0000	-71.1571	160.1752	
-60.0000	-72.4991	172.0349	
-55.0000	-71.2774	-176.2937	
-50.0000	-72.3702	-168.5116	
-45.0000	-69.1235	-164.7541	
-40.0000	-70.2625	-149.5935	
-35.0000	-69.1399	-144.8980	
-30.0000	-67.8978	-137.6788	
-25.0000	-68.1186	-134.8976	
-20.0000	-66.7072	-124.1267	
-15.0000	-65.9196	-127.2533	
-10.0000	-66.3557	-124.2607	
-5.0000	-66.3789	-120.4727	
0.0000	-66.4734	-118.5607	
5.0000	-66.6491	-118.3340	
10.0000	-65.6073	-120.1772	
15.0000	-64.1717	-120.9210	
20.0000	-63.7667	-116.4199	
25.0000	-64.7355	-113.0445	
30.0000	-64.6537	-118.7628	
35.0000	-64.7560	-114.2968	
40.0000	-65.7599	-121.0345	
45.0000	-65.5303	-124.8117	
50.0000	-65.8402	-130.7909	
55.0000	-65.4024	-131.7137	
60.0000	-65.2181	-141.4271	
65.0000	-66.4928	-137.3988	
70.0000	-66.0075	-139.6203	
75.0000	-65.8417	-152.0357	
80.0000	-65.7372	-155.6774	
85.0000	-67.2979	-155.1914	
90.0000	-65.9186	-161.9501	
95.0000	-65.7041	-167.7033	
100.0000	-65.0046	171.1123	
105.0000	-65.3547	163.1600	
110.0000	-67.0027	150.9358	
115.0000	-68.4642	159.1553	
120.0000	-65.8930	155.3730	
125.0000	-63.9307	131.1992	
130.0000	-65.0902	116.8121	
135.0000	-65.8919	112.9306	
140.0000	-65.0369	111.8176	
145.0000	-64.8320	102.0408	
150.0000	-64.1205	96.8630	
155.0000	-64.2024	105.1355	
160.0000	-65.8148	81.8669	
165.0000	-64.4664	86.2968	
170.0000	-67.2600	73.8856	
175.0000	-65.9008	50.5851	
180.0000	-65.3800	41.3326	
			
			
			
[Side Lobes Table]
			
No.	Rel Ampl	Azimuth  [deg]	Absolute Ampl
1L	-2.15	-15.00	-65.92
2L	-4.13	-30.00	-67.90
3L	-5.36	-45.00	-69.12
1R	-0.89	30.00	-64.65
2R	-1.76	45.00	-65.53
3R	-1.45	60.00	-65.22
		 	
File Name:	uwb_dipole.rff		
			
Polarizat.	0.000	Phase	
Frequency	4.800 G	 [GHz]	
Roll  	160.000	[deg]	
Ch.	Channel1		
Beam			
Switch			
Dir	0.00	dBi	
Azimuth  [deg]	Amplitude (dB)	Phase [Deg]	
-180.0000	-65.1265	43.3411	
-175.0000	-65.5930	38.6017	
-170.0000	-67.9873	56.2752	
-165.0000	-66.4798	86.6897	
-160.0000	-67.0274	78.9057	
-155.0000	-66.8701	95.5894	
-150.0000	-65.2053	70.6399	
-145.0000	-66.9833	89.3065	
-140.0000	-68.1092	85.5065	
-135.0000	-68.0858	86.3573	
-130.0000	-68.8419	100.9700	
-125.0000	-74.1136	99.1891	
-120.0000	-71.8902	73.3778	
-115.0000	-70.2894	91.8223	
-110.0000	-71.0105	124.0286	
-105.0000	-75.5622	142.3439	
-100.0000	-76.1651	155.1302	
-95.0000	-75.9919	113.4739	
-90.0000	-70.7856	123.4734	
-85.0000	-74.3676	132.0594	
-80.0000	-71.6380	152.7991	
-75.0000	-74.1249	-178.4475	
-70.0000	-73.9686	159.5261	
-65.0000	-71.0144	169.2333	
-60.0000	-73.1167	-174.0224	
-55.0000	-71.2752	-173.6937	
-50.0000	-70.5408	-158.5398	
-45.0000	-69.5495	-146.6034	
-40.0000	-69.6823	-153.0427	
-35.0000	-68.5591	-139.9224	
-30.0000	-67.6636	-135.2616	
-25.0000	-67.4393	-136.4261	
-20.0000	-66.8567	-124.4463	
-15.0000	-65.5382	-125.2060	
-10.0000	-65.7413	-125.1714	
-5.0000	-66.0100	-122.1297	
0.0000	-66.2356	-121.0322	
5.0000	-66.4944	-120.6939	
10.0000	-65.9034	-122.1697	
15.0000	-64.6470	-124.1654	
20.0000	-63.6025	-120.8309	
25.0000	-64.2586	-114.3279	
30.0000	-65.0130	-121.6167	
35.0000	-64.6358	-121.9555	
40.0000	-65.9005	-127.0698	
45.0000	-65.0783	-134.8219	
50.0000	-65.2399	-134.2419	
55.0000	-65.1374	-138.4714	
60.0000	-66.1237	-145.0439	
65.0000	-65.3799	-141.0704	
70.0000	-65.0375	-153.2482	
75.0000	-65.7214	-166.7458	
80.0000	-65.8693	-167.0490	
85.0000	-66.2308	-174.5686	
90.0000	-65.4512	174.7214	
95.0000	-65.3385	164.9995	
100.0000	-66.5926	154.3975	
105.0000	-66.2954	150.9163	
110.0000	-66.2744	155.3139	
115.0000	-64.2445	149.1608	
120.0000	-63.3767	125.2102	
125.0000	-64.4459	111.2343	
130.0000	-67.1331	113.4517	
135.0000	-65.4161	117.4232	
140.0000	-64.2700	106.7751	
145.0000	-65.4043	101.2902	
150.0000	-64.2144	96.3984	
155.0000	-63.8172	96.2824	
160.0000	-65.7004	88.5872	
165.0000	-64.1926	82.8656	
170.0000	-65.9948	84.3470	
175.0000	-66.4850	55.7509	
180.0000	-65.0958	43.5811	
			
			
			
[Side Lobes Table]
			
No.	Rel Ampl	Azimuth  [deg]	Absolute Ampl
1L	-1.96	95.00	-65.34
2L	-1.66	70.00	-65.04
3L	-1.76	55.00	-65.14
1R	-0.89	140.00	-64.27
2R	-0.44	155.00	-63.82
3R	-0.82	165.00	-64.19
		 	
File Name:	uwb_dipole.rff		
			
Polarizat.	0.000	Phase	
Frequency	4.800 G	 [GHz]	
Roll  	165.000	[deg]	
Ch.	Channel1		
Beam			
Switch			
Dir	0.00	dBi	
Azimuth  [deg]	Amplitude (dB)	Phase [Deg]	
-180.0000	-64.8660	39.9648	
-175.0000	-66.0422	42.7420	
-170.0000	-67.4542	72.8553	
-165.0000	-65.1903	86.1897	
-160.0000	-67.1752	88.9084	
-155.0000	-64.1186	91.9665	
-150.0000	-66.4765	75.4797	
-145.0000	-65.8416	85.0065	
-140.0000	-67.8947	100.3480	
-135.0000	-68.7375	96.1112	
-130.0000	-67.8681	92.7699	
-125.0000	-69.1329	124.5341	
-120.0000	-73.4762	134.4103	
-115.0000	-79.6350	141.6841	
-110.0000	-73.0070	118.9482	
-105.0000	-69.9234	141.5042	
-100.0000	-69.1562	153.3336	
-95.0000	-69.9416	167.6938	
-90.0000	-73.1566	176.4573	
-85.0000	-71.9185	174.5330	
-80.0000	-72.7529	-174.7264	
-75.0000	-70.3314	176.2960	
-70.0000	-70.5994	-162.2789	
-65.0000	-72.4362	-171.1091	
-60.0000	-69.4141	-160.5590	
-55.0000	-70.7324	-141.8703	
-50.0000	-69.2683	-149.2259	
-45.0000	-67.8366	-143.0626	
-40.0000	-68.6625	-134.0996	
-35.0000	-67.0726	-131.8883	
-30.0000	-66.6048	-130.1709	
-25.0000	-66.8118	-125.5149	
-20.0000	-65.5285	-119.8056	
-15.0000	-65.0733	-122.7259	
-10.0000	-65.3150	-122.6743	
-5.0000	-65.6335	-122.4741	
0.0000	-65.9328	-121.9574	
5.0000	-66.1350	-123.4209	
10.0000	-65.3298	-125.5780	
15.0000	-64.0149	-125.5444	
20.0000	-63.7397	-118.6441	
25.0000	-64.9433	-119.9376	
30.0000	-64.9079	-128.7533	
35.0000	-65.0647	-127.8743	
40.0000	-65.2943	-138.2495	
45.0000	-64.5991	-135.6804	
50.0000	-65.4216	-142.5484	
55.0000	-65.3785	-144.6673	
60.0000	-64.8365	-153.6136	
65.0000	-66.5994	-160.1214	
70.0000	-65.6529	-158.3345	
75.0000	-65.4763	-167.5179	
80.0000	-65.8534	-175.5147	
85.0000	-66.7781	178.8576	
90.0000	-66.0387	179.2457	
95.0000	-65.3608	174.3009	
100.0000	-64.7208	157.1681	
105.0000	-64.9333	144.7866	
110.0000	-66.2766	133.4211	
115.0000	-68.5414	127.1171	
120.0000	-65.3057	143.9350	
125.0000	-63.6719	121.2228	
130.0000	-64.3157	105.7630	
135.0000	-65.4274	101.2006	
140.0000	-64.9131	108.1340	
145.0000	-64.2984	93.3526	
150.0000	-64.4658	92.6388	
155.0000	-64.0116	92.4748	
160.0000	-64.7869	82.6501	
165.0000	-64.6151	84.8041	
170.0000	-66.8707	70.0266	
175.0000	-65.6153	48.8036	
180.0000	-64.8397	39.7647	
			
			
			
[Side Lobes Table]
			
No.	Rel Ampl	Azimuth  [deg]	Absolute Ampl
1L	-1.05	100.00	-64.72
2L	-1.80	75.00	-65.48
3L	-1.16	60.00	-64.84
1R	-0.63	145.00	-64.30
2R	-0.34	155.00	-64.01
3R	-0.94	165.00	-64.62
		 	
File Name:	uwb_dipole.rff		
			
Polarizat.	0.000	Phase	
Frequency	4.800 G	 [GHz]	
Roll  	170.000	[deg]	
Ch.	Channel1		
Beam			
Switch			
Dir	0.00	dBi	
Azimuth  [deg]	Amplitude (dB)	Phase [Deg]	
-180.0000	-64.8043	42.2017	
-175.0000	-65.1545	39.8498	
-170.0000	-67.1038	57.4537	
-165.0000	-65.1727	86.5616	
-160.0000	-65.1963	85.3766	
-155.0000	-64.7416	101.0467	
-150.0000	-64.0241	79.9165	
-145.0000	-66.8536	91.5012	
-140.0000	-68.5967	100.9960	
-135.0000	-66.2165	95.3298	
-130.0000	-68.4611	110.6481	
-125.0000	-70.7909	135.0239	
-120.0000	-71.3928	101.5992	
-115.0000	-70.4363	130.1404	
-110.0000	-66.9629	142.4369	
-105.0000	-68.6234	172.7944	
-100.0000	-70.9177	169.2217	
-95.0000	-73.2011	173.8952	
-90.0000	-71.3703	156.6556	
-85.0000	-70.1411	179.2341	
-80.0000	-69.5262	-165.8194	
-75.0000	-69.8158	-166.0877	
-70.0000	-70.5512	-157.9417	
-65.0000	-69.9088	-163.6805	
-60.0000	-68.8964	-149.6152	
-55.0000	-70.0164	-142.2755	
-50.0000	-66.9793	-142.3148	
-45.0000	-67.9334	-130.0250	
-40.0000	-67.5162	-136.3019	
-35.0000	-66.8160	-127.2169	
-30.0000	-66.2657	-126.3334	
-25.0000	-66.2547	-126.5544	
-20.0000	-65.5582	-118.4301	
-15.0000	-64.7077	-120.2363	
-10.0000	-64.9290	-122.0531	
-5.0000	-65.2380	-122.2100	
0.0000	-65.7372	-122.2650	
5.0000	-65.9495	-123.1521	
10.0000	-65.6558	-126.3427	
15.0000	-64.5750	-128.7613	
20.0000	-63.6910	-125.1133	
25.0000	-64.5287	-121.6802	
30.0000	-65.1626	-133.0398	
35.0000	-64.3994	-134.8949	
40.0000	-65.2660	-139.2385	
45.0000	-64.3539	-142.7237	
50.0000	-65.6477	-142.4106	
55.0000	-65.1794	-150.6510	
60.0000	-65.9976	-160.8005	
65.0000	-65.9709	-154.1826	
70.0000	-64.5711	-169.0328	
75.0000	-65.5942	-177.2178	
80.0000	-65.7449	172.3054	
85.0000	-65.8283	167.1938	
90.0000	-64.9812	162.0480	
95.0000	-65.0451	149.7305	
100.0000	-65.5613	135.0550	
105.0000	-65.9467	138.4940	
110.0000	-66.1372	138.8159	
115.0000	-64.0253	133.2348	
120.0000	-62.8557	122.4881	
125.0000	-64.4644	96.8801	
130.0000	-66.2767	101.9833	
135.0000	-65.6070	109.7429	
140.0000	-64.3748	99.3832	
145.0000	-65.0821	92.3516	
150.0000	-64.8250	92.2272	
155.0000	-63.4849	82.9763	
160.0000	-64.6995	87.5558	
165.0000	-64.5977	80.5796	
170.0000	-66.2334	76.9967	
175.0000	-66.2374	53.5620	
180.0000	-64.8495	42.6968	
			
			
			
[Side Lobes Table]
			
No.	Rel Ampl	Azimuth  [deg]	Absolute Ampl
1L	-2.13	90.00	-64.98
2L	-1.72	70.00	-64.57
3L	-2.32	55.00	-65.18
1R	-1.52	140.00	-64.37
2R	-0.63	155.00	-63.48
3R	-1.74	165.00	-64.60
		 	
File Name:	uwb_dipole.rff		
			
Polarizat.	0.000	Phase	
Frequency	4.800 G	 [GHz]	
Roll  	175.000	[deg]	
Ch.	Channel1		
Beam			
Switch			
Dir	0.00	dBi	
Azimuth  [deg]	Amplitude (dB)	Phase [Deg]	
-180.0000	-64.6394	39.6994	
-175.0000	-65.7574	43.4287	
-170.0000	-66.6756	73.1701	
-165.0000	-64.0112	85.7018	
-160.0000	-65.0909	90.7344	
-155.0000	-63.2723	94.1595	
-150.0000	-67.0601	85.4769	
-145.0000	-66.0636	99.7013	
-140.0000	-65.6415	109.7401	
-135.0000	-70.0990	106.0080	
-130.0000	-67.2382	118.2626	
-125.0000	-66.8553	135.6138	
-120.0000	-67.7451	166.5824	
-115.0000	-69.9912	155.0647	
-110.0000	-69.8595	149.1884	
-105.0000	-66.7876	151.2539	
-100.0000	-66.1750	179.0559	
-95.0000	-67.0920	-179.6243	
-90.0000	-68.0931	-157.2988	
-85.0000	-68.5643	-165.2846	
-80.0000	-67.6992	-163.4819	
-75.0000	-68.0805	-153.3704	
-70.0000	-67.5999	-149.7311	
-65.0000	-69.0568	-142.2061	
-60.0000	-67.2886	-142.9050	
-55.0000	-67.1349	-131.5159	
-50.0000	-68.1494	-137.4515	
-45.0000	-65.7643	-130.1651	
-40.0000	-67.0774	-125.3377	
-35.0000	-65.9848	-120.7656	
-30.0000	-65.5229	-122.8806	
-25.0000	-65.6809	-119.7766	
-20.0000	-64.8725	-116.4569	
-15.0000	-64.4187	-119.8129	
-10.0000	-64.7300	-122.8947	
-5.0000	-65.2853	-123.6132	
0.0000	-65.6849	-124.2773	
5.0000	-65.9645	-126.9826	
10.0000	-65.2857	-131.8029	
15.0000	-64.0861	-132.1513	
20.0000	-63.8262	-127.9137	
25.0000	-64.9659	-129.4666	
30.0000	-64.5370	-138.8502	
35.0000	-64.7780	-136.7870	
40.0000	-65.1043	-146.3855	
45.0000	-65.0874	-143.9355	
50.0000	-65.8861	-157.2093	
55.0000	-65.4654	-154.7407	
60.0000	-65.2809	-170.0070	
65.0000	-66.3799	-173.8882	
70.0000	-66.9909	-167.6678	
75.0000	-65.6157	176.1827	
80.0000	-66.2349	172.8954	
85.0000	-66.2924	166.0190	
90.0000	-68.0801	163.4396	
95.0000	-65.3266	163.0868	
100.0000	-64.9093	146.4997	
105.0000	-65.3458	133.3991	
110.0000	-65.8627	119.2059	
115.0000	-68.9961	128.9848	
120.0000	-66.9502	129.6916	
125.0000	-63.9270	115.5482	
130.0000	-64.3804	102.9939	
135.0000	-66.1808	88.8020	
140.0000	-64.7109	98.4940	
145.0000	-65.0886	88.3041	
150.0000	-64.7093	79.0213	
155.0000	-63.3582	87.9543	
160.0000	-65.3039	80.1343	
165.0000	-64.8973	78.4136	
170.0000	-66.8149	67.4564	
175.0000	-65.6129	46.4409	
180.0000	-64.6031	39.1089	
			
			
			
[Side Lobes Table]
			
No.	Rel Ampl	Azimuth  [deg]	Absolute Ampl
1L	-0.74	-165.00	-64.01
1R	-2.37	-140.00	-65.64
2R	-3.58	-125.00	-66.86
3R	-2.90	-100.00	-66.18
		 	
File Name:	uwb_dipole.rff		
			
Polarizat.	0.000	Phase	
Frequency	4.800 G	 [GHz]	
Roll  	180.000	[deg]	
Ch.	Channel1		
Beam			
Switch			
Dir	0.00	dBi	
Azimuth  [deg]	Amplitude (dB)	Phase [Deg]	
-180.0000	-64.7130	40.4817	
-175.0000	-65.0053	40.5807	
-170.0000	-66.8017	59.6453	
-165.0000	-64.5452	84.8597	
-160.0000	-63.9882	84.5970	
-155.0000	-63.8250	98.0325	
-150.0000	-64.8193	85.8843	
-145.0000	-65.1357	106.1682	
-140.0000	-67.1007	114.6881	
-135.0000	-66.7085	109.5497	
-130.0000	-65.9041	134.8585	
-125.0000	-67.1452	149.2684	
-120.0000	-68.3462	140.9996	
-115.0000	-65.6892	138.2453	
-110.0000	-64.8382	152.1991	
-105.0000	-65.4037	172.4643	
-100.0000	-67.3669	-170.8692	
-95.0000	-69.8027	-173.4389	
-90.0000	-67.8866	-169.8880	
-85.0000	-67.2541	-168.1082	
-80.0000	-66.6464	-158.2101	
-75.0000	-67.5900	-147.6645	
-70.0000	-67.6193	-148.4910	
-65.0000	-67.4842	-141.6201	
-60.0000	-66.2442	-137.3268	
-55.0000	-67.3381	-134.1719	
-50.0000	-65.9353	-132.3122	
-45.0000	-65.6850	-120.1363	
-40.0000	-66.3398	-128.7225	
-35.0000	-65.7362	-118.2133	
-30.0000	-64.9787	-119.0422	
-25.0000	-65.3611	-121.3711	
-20.0000	-65.0259	-113.5177	
-15.0000	-64.1097	-116.8742	
-10.0000	-64.3521	-121.1444	
-5.0000	-65.0335	-123.7191	
0.0000	-65.6461	-123.6684	
5.0000	-65.8887	-126.0502	
10.0000	-65.6038	-131.9660	
15.0000	-64.6599	-135.4687	
20.0000	-63.7139	-132.4519	
25.0000	-64.4803	-130.9730	
30.0000	-65.0887	-139.4930	
35.0000	-64.7324	-139.8702	
40.0000	-65.8940	-146.2572	
45.0000	-65.2717	-151.8852	
50.0000	-66.3662	-156.7593	
55.0000	-65.4102	-159.8795	
60.0000	-67.0045	-173.7401	
65.0000	-66.6889	-164.1510	
70.0000	-66.2611	-179.8178	
75.0000	-65.9675	166.3059	
80.0000	-66.8639	160.3898	
85.0000	-66.4680	158.8443	
90.0000	-65.8641	147.7642	
95.0000	-64.5966	143.1698	
100.0000	-66.6870	121.2309	
105.0000	-67.1092	123.6405	
110.0000	-66.4259	130.8143	
115.0000	-65.9412	127.8907	
120.0000	-63.4181	111.6946	
125.0000	-64.7369	90.9839	
130.0000	-67.4570	92.4808	
135.0000	-67.2572	94.0680	
140.0000	-64.2325	95.1591	
145.0000	-66.6973	83.8407	
150.0000	-65.1472	79.8911	
155.0000	-63.4081	80.1228	
160.0000	-65.8641	83.1295	
165.0000	-64.8193	72.4424	
170.0000	-66.1399	74.6430	
175.0000	-66.5462	52.0691	
180.0000	-64.7064	40.2724	
			
			
			
[Side Lobes Table]
			
No.	Rel Ampl	Azimuth  [deg]	Absolute Ampl
1L	-0.82	140.00	-64.23
2L	-0.01	120.00	-63.42
3L	-1.19	95.00	-64.60
1R	-1.41	165.00	-64.82
		 	



[Statistics Table]
		Polarizat.	Freq.	Roll  	Ch.	Beam	Switch	Beam Peak [dB]		 	Beam Width [deg]		 	Null Depth [dB]		 				
File Name		[deg]	 [GHz]	[deg]				Value	[deg]		Value	At dB		Value	[deg]				 	 
uwb_dipole.rff		0.000	4.800 G	0.000	Channel1			-63.22	155.00	P	33.15	3.00	P				0.00			
uwb_dipole.rff		0.000	4.800 G	5.000	Channel1			-63.25	180.00	P	N/A	3.00	P				0.00			
uwb_dipole.rff		0.000	4.800 G	10.000	Channel1			-63.35	155.00	P	N/A	3.00	P				0.00			
uwb_dipole.rff		0.000	4.800 G	15.000	Channel1			-63.39	125.00	P	82.54	3.00	P				0.00			
uwb_dipole.rff		0.000	4.800 G	20.000	Channel1			-63.41	155.00	P	N/A	3.00	P				0.00			
uwb_dipole.rff		0.000	4.800 G	25.000	Channel1			-63.72	20.00	P	68.05	3.00	P				0.00			
uwb_dipole.rff		0.000	4.800 G	30.000	Channel1			-63.65	155.00	P	N/A	3.00	P				0.00			
uwb_dipole.rff		0.000	4.800 G	35.000	Channel1			-64.37	155.00	P	N/A	3.00	P				0.00			
uwb_dipole.rff		0.000	4.800 G	40.000	Channel1			-64.97	155.00	P	N/A	3.00	P				0.00			
uwb_dipole.rff		0.000	4.800 G	45.000	Channel1			-64.97	95.00	P	99.77	3.00	P				0.00			
uwb_dipole.rff		0.000	4.800 G	50.000	Channel1			-65.84	70.00	P	108.19	3.00	P				0.00			
uwb_dipole.rff		0.000	4.800 G	55.000	Channel1			-65.86	70.00	P	84.97	3.00	P				0.00			
uwb_dipole.rff		0.000	4.800 G	60.000	Channel1			-66.91	65.00	P	89.45	3.00	P				0.00			
uwb_dipole.rff		0.000	4.800 G	65.000	Channel1			-67.56	90.00	P	81.56	3.00	P				0.00			
uwb_dipole.rff		0.000	4.800 G	70.000	Channel1			-69.36	65.00	P	74.88	3.00	P				0.00			
uwb_dipole.rff		0.000	4.800 G	75.000	Channel1			-70.97	-110.00	P	21.75	3.00	P				0.00			
uwb_dipole.rff		0.000	4.800 G	80.000	Channel1			-74.66	-115.00	P	9.46	3.00	P				0.00			
uwb_dipole.rff		0.000	4.800 G	85.000	Channel1			-77.58	-120.00	P	13.65	3.00	P				0.00			
uwb_dipole.rff		0.000	4.800 G	90.000	Channel1			-80.87	-75.00	P	5.96	3.00	P				0.00			
uwb_dipole.rff		0.000	4.800 G	95.000	Channel1			-76.00	95.00	P	7.29	3.00	P				0.00			
uwb_dipole.rff		0.000	4.800 G	100.000	Channel1			-72.26	-95.00	P	14.50	3.00	P				0.00			
uwb_dipole.rff		0.000	4.800 G	105.000	Channel1			-70.21	95.00	P	46.43	3.00	P				0.00			
uwb_dipole.rff		0.000	4.800 G	110.000	Channel1			-68.41	85.00	P	59.23	3.00	P				0.00			
uwb_dipole.rff		0.000	4.800 G	115.000	Channel1			-66.85	95.00	P	72.87	3.00	P				0.00			
uwb_dipole.rff		0.000	4.800 G	120.000	Channel1			-66.22	85.00	P	77.59	3.00	P				0.00			
uwb_dipole.rff		0.000	4.800 G	125.000	Channel1			-65.27	95.00	P	87.03	3.00	P				0.00			
uwb_dipole.rff		0.000	4.800 G	130.000	Channel1			-65.09	115.00	P	93.28	3.00	P				0.00			
uwb_dipole.rff		0.000	4.800 G	135.000	Channel1			-64.88	95.00	P	101.97	3.00	P				0.00			
uwb_dipole.rff		0.000	4.800 G	140.000	Channel1			-64.55	115.00	P	21.64	3.00	P				0.00			
uwb_dipole.rff		0.000	4.800 G	145.000	Channel1			-64.45	155.00	P	54.19	3.00	P				0.00			
uwb_dipole.rff		0.000	4.800 G	150.000	Channel1			-63.71	155.00	P	26.35	3.00	P				0.00			
uwb_dipole.rff		0.000	4.800 G	155.000	Channel1			-63.77	20.00	P	103.51	3.00	P				0.00			
uwb_dipole.rff		0.000	4.800 G	160.000	Channel1			-63.38	120.00	P	24.96	3.00	P				0.00			
uwb_dipole.rff		0.000	4.800 G	165.000	Channel1			-63.67	125.00	P	51.67	3.00	P				0.00			
uwb_dipole.rff		0.000	4.800 G	170.000	Channel1			-62.86	120.00	P	18.17	3.00	P				0.00			
uwb_dipole.rff		0.000	4.800 G	175.000	Channel1			-63.27	-155.00	P	18.20	3.00	P				0.00			
uwb_dipole.rff		0.000	4.800 G	180.000	Channel1			-63.41	155.00	P	27.37	3.00	P				0.00			



[Database Table]
First Question	
2nd	
3rd	
4th	
