File Name:	uwb_dipole.rff		
			
Polarizat.	0.000	Phase	
Frequency	4.300 G	 [GHz]	
Roll  	0.000	[deg]	
Ch.	Channel1		
Beam			
Switch			
Dir	0.00	dBi	
Azimuth  [deg]	Amplitude (dB)	Phase [Deg]	
-180.0000	-62.1323	153.7397	
-175.0000	-62.6567	154.3498	
-170.0000	-64.8253	163.8771	
-165.0000	-63.9239	-171.6375	
-160.0000	-62.4699	-173.1787	
-155.0000	-63.5479	-172.1223	
-150.0000	-62.8788	-165.5087	
-145.0000	-63.5477	-163.3463	
-140.0000	-63.4379	-163.3350	
-135.0000	-64.6422	-156.1281	
-130.0000	-64.4195	-148.1194	
-125.0000	-64.7143	-142.8842	
-120.0000	-63.7390	-135.8730	
-115.0000	-66.5788	-130.8379	
-110.0000	-65.0100	-131.0149	
-105.0000	-63.7829	-119.3134	
-100.0000	-64.6130	-111.1092	
-95.0000	-66.1316	-102.9364	
-90.0000	-65.2047	-99.3292	
-85.0000	-64.7320	-94.6394	
-80.0000	-65.6749	-84.2352	
-75.0000	-65.8416	-78.2465	
-70.0000	-65.4236	-84.1277	
-65.0000	-64.5028	-72.4090	
-60.0000	-65.5939	-63.4261	
-55.0000	-64.8970	-56.6245	
-50.0000	-65.5600	-57.6713	
-45.0000	-64.3872	-54.9395	
-40.0000	-65.7858	-38.8363	
-35.0000	-63.4786	-45.4490	
-30.0000	-64.8812	-40.4517	
-25.0000	-63.4923	-37.4019	
-20.0000	-64.5347	-40.9942	
-15.0000	-65.1479	-31.4233	
-10.0000	-64.5851	-24.7108	
-5.0000	-63.9793	-22.7991	
0.0000	-63.6848	-21.8514	
5.0000	-63.7499	-21.1791	
10.0000	-64.1457	-22.1580	
15.0000	-64.5826	-26.2389	
20.0000	-64.6601	-32.8621	
25.0000	-63.2253	-36.3564	
30.0000	-63.0776	-27.3299	
35.0000	-65.6600	-31.3451	
40.0000	-63.6200	-41.0944	
45.0000	-65.4189	-33.4651	
50.0000	-64.1982	-43.8836	
55.0000	-65.2552	-46.1455	
60.0000	-65.3509	-47.1630	
65.0000	-65.4082	-57.0928	
70.0000	-64.7343	-59.3807	
75.0000	-65.2969	-71.8728	
80.0000	-66.2923	-70.0645	
85.0000	-64.8418	-71.5650	
90.0000	-65.1160	-76.9676	
95.0000	-64.2062	-92.0291	
100.0000	-65.7214	-98.2687	
105.0000	-64.6524	-99.6801	
110.0000	-64.2778	-106.9116	
115.0000	-63.2970	-126.6138	
120.0000	-67.2658	-123.0951	
125.0000	-65.6222	-122.9262	
130.0000	-64.5282	-129.7864	
135.0000	-65.0063	-150.0846	
140.0000	-64.1014	-158.9433	
145.0000	-64.1565	-149.0415	
150.0000	-63.6349	-169.5647	
155.0000	-62.6172	-162.9577	
160.0000	-62.1021	-171.0012	
165.0000	-62.0046	-163.7863	
170.0000	-64.4365	-172.4358	
175.0000	-63.8644	162.4717	
180.0000	-62.1847	153.4965	
			
			
			
[Side Lobes Table]
			
No.	Rel Ampl	Azimuth  [deg]	Absolute Ampl
1L	-2.10	140.00	-64.10
2L	-2.52	130.00	-64.53
3L	-1.29	115.00	-63.30
		 	
File Name:	uwb_dipole.rff		
			
Polarizat.	0.000	Phase	
Frequency	4.300 G	 [GHz]	
Roll  	5.000	[deg]	
Ch.	Channel1		
Beam			
Switch			
Dir	0.00	dBi	
Azimuth  [deg]	Amplitude (dB)	Phase [Deg]	
-180.0000	-62.1982	153.4909	
-175.0000	-63.6205	154.3626	
-170.0000	-65.5566	173.2165	
-165.0000	-63.4276	-170.1055	
-160.0000	-62.6232	-174.6862	
-155.0000	-63.4862	-172.4369	
-150.0000	-63.6572	-172.0428	
-145.0000	-64.3662	-164.2275	
-140.0000	-64.0875	-162.5284	
-135.0000	-64.8657	-162.7935	
-130.0000	-65.8023	-155.6281	
-125.0000	-66.3257	-143.3235	
-120.0000	-64.4826	-144.8090	
-115.0000	-65.0035	-133.7827	
-110.0000	-68.2172	-124.7563	
-105.0000	-66.3077	-126.7138	
-100.0000	-65.6732	-122.7874	
-95.0000	-66.3694	-111.7232	
-90.0000	-67.6679	-101.5562	
-85.0000	-66.0452	-102.2636	
-80.0000	-66.4786	-95.4103	
-75.0000	-65.6909	-81.6158	
-70.0000	-67.6163	-78.4136	
-65.0000	-65.9692	-81.3760	
-60.0000	-66.0841	-73.2830	
-55.0000	-65.8253	-64.7253	
-50.0000	-65.4902	-55.9234	
-45.0000	-65.8632	-66.7104	
-40.0000	-65.2699	-41.5145	
-35.0000	-64.8535	-50.8833	
-30.0000	-64.3134	-38.8566	
-25.0000	-63.5766	-44.7276	
-20.0000	-65.1373	-44.3359	
-15.0000	-65.2474	-32.3814	
-10.0000	-64.5778	-25.0422	
-5.0000	-63.8303	-23.5034	
0.0000	-63.5641	-21.3568	
5.0000	-63.6779	-20.5903	
10.0000	-64.1059	-21.7001	
15.0000	-64.3774	-25.2503	
20.0000	-64.0288	-32.7563	
25.0000	-62.7288	-31.2151	
30.0000	-63.3204	-20.9063	
35.0000	-64.7624	-35.2319	
40.0000	-63.0735	-28.6053	
45.0000	-64.5760	-37.2250	
50.0000	-64.1270	-35.0122	
55.0000	-63.8676	-43.6616	
60.0000	-64.8446	-41.6557	
65.0000	-64.7034	-53.7548	
70.0000	-64.4451	-49.7221	
75.0000	-63.4020	-61.2870	
80.0000	-64.5247	-71.8891	
85.0000	-64.0332	-78.3239	
90.0000	-65.2157	-74.5963	
95.0000	-63.6548	-82.0932	
100.0000	-64.2513	-92.2606	
105.0000	-64.4036	-103.6452	
110.0000	-65.3250	-98.9164	
115.0000	-62.5023	-109.2390	
120.0000	-63.0015	-128.1144	
125.0000	-64.3842	-135.1094	
130.0000	-64.7792	-130.0002	
135.0000	-64.3071	-141.5694	
140.0000	-63.0349	-152.5797	
145.0000	-64.4181	-152.1223	
150.0000	-62.3395	-163.9059	
155.0000	-62.7529	-163.8162	
160.0000	-61.5610	-169.0889	
165.0000	-62.5317	-164.3103	
170.0000	-64.3244	176.7551	
175.0000	-62.9244	158.5969	
180.0000	-62.2886	153.0785	
			
			
			
[Side Lobes Table]
			
No.	Rel Ampl	Azimuth  [deg]	Absolute Ampl
1L	-0.78	150.00	-62.34
2L	-1.47	140.00	-63.03
3L	-0.94	115.00	-62.50
		 	
File Name:	uwb_dipole.rff		
			
Polarizat.	0.000	Phase	
Frequency	4.300 G	 [GHz]	
Roll  	10.000	[deg]	
Ch.	Channel1		
Beam			
Switch			
Dir	0.00	dBi	
Azimuth  [deg]	Amplitude (dB)	Phase [Deg]	
-180.0000	-62.3343	154.5338	
-175.0000	-63.0821	151.3627	
-170.0000	-65.5806	160.2865	
-165.0000	-65.2470	-173.3843	
-160.0000	-62.8547	-173.1105	
-155.0000	-63.6705	-176.7646	
-150.0000	-63.4947	-174.4587	
-145.0000	-64.9241	-176.4403	
-140.0000	-65.6612	-166.8957	
-135.0000	-64.9571	-163.4717	
-130.0000	-65.2753	-164.1764	
-125.0000	-67.2798	-164.8963	
-120.0000	-66.3444	-144.2454	
-115.0000	-68.7020	-141.5334	
-110.0000	-66.3669	-155.3882	
-105.0000	-67.1765	-136.7862	
-100.0000	-66.8246	-118.9947	
-95.0000	-68.8752	-124.1502	
-90.0000	-67.8743	-126.4030	
-85.0000	-68.9699	-108.7190	
-80.0000	-66.9693	-103.5260	
-75.0000	-69.6255	-103.5133	
-70.0000	-67.1170	-103.6653	
-65.0000	-66.6409	-88.9732	
-60.0000	-67.1304	-77.2930	
-55.0000	-67.2295	-83.1821	
-50.0000	-67.6179	-69.2223	
-45.0000	-65.1271	-67.6912	
-40.0000	-67.4814	-57.9643	
-35.0000	-65.1896	-54.5417	
-30.0000	-65.9159	-44.9859	
-25.0000	-63.4464	-44.8483	
-20.0000	-64.3809	-51.7032	
-15.0000	-65.7387	-42.6456	
-10.0000	-65.2380	-30.3515	
-5.0000	-64.3017	-25.2907	
0.0000	-63.7000	-22.2300	
5.0000	-63.4438	-19.8397	
10.0000	-63.6794	-19.2612	
15.0000	-64.0204	-20.8325	
20.0000	-64.3448	-25.4369	
25.0000	-63.0280	-29.2476	
30.0000	-62.4648	-21.4795	
35.0000	-64.4317	-20.8255	
40.0000	-62.8751	-31.5808	
45.0000	-64.0411	-25.4645	
50.0000	-63.1879	-31.6075	
55.0000	-64.1344	-38.0179	
60.0000	-63.1462	-36.2610	
65.0000	-64.3949	-41.5747	
70.0000	-63.2767	-49.8856	
75.0000	-64.3946	-59.2547	
80.0000	-64.0345	-57.6052	
85.0000	-64.2367	-61.7466	
90.0000	-62.5614	-70.8198	
95.0000	-62.7882	-81.7935	
100.0000	-63.7685	-84.7503	
105.0000	-64.1796	-90.7562	
110.0000	-62.3820	-99.4074	
115.0000	-63.1748	-121.9613	
120.0000	-65.2227	-119.1841	
125.0000	-64.5564	-115.4585	
130.0000	-62.8656	-125.1301	
135.0000	-63.6040	-138.9036	
140.0000	-64.0332	-147.1142	
145.0000	-63.2546	-144.0834	
150.0000	-63.1571	-161.5049	
155.0000	-62.2300	-158.3775	
160.0000	-62.3229	-170.2193	
165.0000	-61.8940	-166.9263	
170.0000	-63.8968	-174.8840	
175.0000	-63.5394	163.7135	
180.0000	-62.3757	154.2312	
			
			
			
[Side Lobes Table]
			
No.	Rel Ampl	Azimuth  [deg]	Absolute Ampl
1L	-0.34	155.00	-62.23
2L	-0.97	130.00	-62.87
3L	-0.49	110.00	-62.38
		 	
File Name:	uwb_dipole.rff		
			
Polarizat.	0.000	Phase	
Frequency	4.300 G	 [GHz]	
Roll  	15.000	[deg]	
Ch.	Channel1		
Beam			
Switch			
Dir	0.00	dBi	
Azimuth  [deg]	Amplitude (dB)	Phase [Deg]	
-180.0000	-62.5527	152.1233	
-175.0000	-64.1655	149.5619	
-170.0000	-66.7976	167.6226	
-165.0000	-64.4627	-171.0350	
-160.0000	-63.5538	-178.3004	
-155.0000	-64.6818	-175.1406	
-150.0000	-64.0656	-178.3987	
-145.0000	-65.4788	-179.4375	
-140.0000	-66.8319	-176.0927	
-135.0000	-67.4311	-164.9772	
-130.0000	-65.6401	-168.3003	
-125.0000	-68.7920	-170.4337	
-120.0000	-66.7997	-166.7902	
-115.0000	-69.4991	-139.9883	
-110.0000	-69.1582	-143.7980	
-105.0000	-69.1331	-158.6827	
-100.0000	-67.6814	-141.4637	
-95.0000	-70.3389	-135.7027	
-90.0000	-69.0879	-133.9259	
-85.0000	-70.1426	-134.2070	
-80.0000	-67.3339	-117.2870	
-75.0000	-69.2601	-104.3802	
-70.0000	-69.9739	-104.0464	
-65.0000	-68.2537	-106.9880	
-60.0000	-67.0083	-90.9202	
-55.0000	-67.5695	-90.6138	
-50.0000	-68.2975	-72.1300	
-45.0000	-66.3882	-79.8718	
-40.0000	-66.7381	-60.4473	
-35.0000	-66.3128	-64.5506	
-30.0000	-65.6995	-43.3981	
-25.0000	-63.8083	-49.2404	
-20.0000	-65.2212	-52.2265	
-15.0000	-65.9065	-40.2173	
-10.0000	-65.1385	-28.6675	
-5.0000	-64.1596	-23.9613	
0.0000	-63.6080	-19.9662	
5.0000	-63.5331	-18.7095	
10.0000	-63.7950	-18.2725	
15.0000	-64.0597	-19.9188	
20.0000	-63.8671	-25.7498	
25.0000	-62.4984	-25.0582	
30.0000	-62.6868	-14.6964	
35.0000	-64.2331	-24.9691	
40.0000	-62.7071	-21.6222	
45.0000	-63.4739	-27.4812	
50.0000	-63.4603	-23.4824	
55.0000	-63.3641	-36.6051	
60.0000	-63.0852	-33.4242	
65.0000	-63.8842	-42.4280	
70.0000	-63.1816	-38.9856	
75.0000	-63.2879	-52.8167	
80.0000	-62.7979	-61.0655	
85.0000	-64.2107	-65.4491	
90.0000	-63.8425	-68.6020	
95.0000	-62.6930	-73.9638	
100.0000	-62.9069	-83.3011	
105.0000	-64.4245	-96.6110	
110.0000	-63.5529	-90.4211	
115.0000	-62.1012	-104.2034	
120.0000	-62.1076	-117.7018	
125.0000	-64.8270	-131.3221	
130.0000	-63.6887	-125.0609	
135.0000	-63.9187	-133.5517	
140.0000	-62.9177	-149.1396	
145.0000	-64.1934	-145.3762	
150.0000	-62.3087	-160.8011	
155.0000	-63.0944	-160.0956	
160.0000	-62.1984	-171.1875	
165.0000	-62.6139	-168.0027	
170.0000	-64.1869	176.0852	
175.0000	-63.0992	159.0939	
180.0000	-62.5668	151.7841	
			
			
			
[Side Lobes Table]
			
No.	Rel Ampl	Azimuth  [deg]	Absolute Ampl
1L	-0.59	95.00	-62.69
2L	-0.70	80.00	-62.80
3L	-1.08	70.00	-63.18
1R	-1.59	130.00	-63.69
2R	-0.82	140.00	-62.92
3R	-0.21	150.00	-62.31
		 	
File Name:	uwb_dipole.rff		
			
Polarizat.	0.000	Phase	
Frequency	4.300 G	 [GHz]	
Roll  	20.000	[deg]	
Ch.	Channel1		
Beam			
Switch			
Dir	0.00	dBi	
Azimuth  [deg]	Amplitude (dB)	Phase [Deg]	
-180.0000	-62.8560	154.0027	
-175.0000	-63.4824	148.2286	
-170.0000	-66.3762	154.5826	
-165.0000	-66.3687	-176.5207	
-160.0000	-64.0175	-177.5795	
-155.0000	-65.5272	176.1326	
-150.0000	-65.1362	-176.1479	
-145.0000	-65.6854	177.7109	
-140.0000	-66.0889	177.0134	
-135.0000	-67.7484	171.1824	
-130.0000	-68.6090	-167.3508	
-125.0000	-67.9283	-177.7763	
-120.0000	-68.4814	-166.1318	
-115.0000	-70.1361	174.2580	
-110.0000	-69.8990	179.1187	
-105.0000	-67.9816	-150.0041	
-100.0000	-69.9934	-152.4458	
-95.0000	-70.5161	-166.4243	
-90.0000	-70.3755	-156.6119	
-85.0000	-69.0455	-146.8859	
-80.0000	-70.0286	-140.7138	
-75.0000	-70.7467	-131.8772	
-70.0000	-67.8276	-131.2223	
-65.0000	-68.2298	-110.8046	
-60.0000	-69.3233	-105.2999	
-55.0000	-68.2425	-101.8087	
-50.0000	-68.1848	-96.2436	
-45.0000	-67.0046	-83.6137	
-40.0000	-68.1968	-77.3125	
-35.0000	-65.9730	-72.6568	
-30.0000	-67.9208	-61.2393	
-25.0000	-64.8996	-48.8329	
-20.0000	-64.7993	-56.9371	
-15.0000	-66.0176	-49.3151	
-10.0000	-65.9266	-35.8745	
-5.0000	-64.7703	-27.4277	
0.0000	-64.0575	-21.4790	
5.0000	-63.6122	-18.8600	
10.0000	-63.7465	-16.6786	
15.0000	-64.0031	-16.5864	
20.0000	-64.2762	-20.2105	
25.0000	-63.0096	-24.4338	
30.0000	-62.1443	-16.9173	
35.0000	-63.8770	-13.3122	
40.0000	-62.8502	-23.0820	
45.0000	-63.6823	-19.0813	
50.0000	-62.4110	-24.1823	
55.0000	-63.8915	-25.1255	
60.0000	-62.9548	-31.2568	
65.0000	-63.5098	-32.1638	
70.0000	-62.7924	-43.2929	
75.0000	-64.0731	-43.8398	
80.0000	-64.5176	-50.9454	
85.0000	-63.0154	-51.4049	
90.0000	-62.6106	-63.6024	
95.0000	-62.6977	-71.9819	
100.0000	-63.6512	-81.9981	
105.0000	-63.8054	-76.9469	
110.0000	-62.5344	-97.1759	
115.0000	-63.0664	-108.1071	
120.0000	-64.4865	-118.7126	
125.0000	-63.9323	-103.7057	
130.0000	-62.9154	-124.3416	
135.0000	-62.9923	-129.3462	
140.0000	-64.7738	-141.1760	
145.0000	-62.9242	-138.5456	
150.0000	-63.8300	-154.9772	
155.0000	-62.8727	-154.1081	
160.0000	-63.3847	-168.1254	
165.0000	-62.4132	-169.3798	
170.0000	-64.0593	-174.9964	
175.0000	-64.0272	164.3025	
180.0000	-62.8331	153.5318	
			
			
			
[Side Lobes Table]
			
No.	Rel Ampl	Azimuth  [deg]	Absolute Ampl
1L	-1.47	5.00	-63.61
2L	-2.66	-20.00	-64.80
3L	-3.83	-35.00	-65.97
1R	-0.71	40.00	-62.85
2R	-0.27	50.00	-62.41
3R	-0.81	60.00	-62.95
		 	
File Name:	uwb_dipole.rff		
			
Polarizat.	0.000	Phase	
Frequency	4.300 G	 [GHz]	
Roll  	25.000	[deg]	
Ch.	Channel1		
Beam			
Switch			
Dir	0.00	dBi	
Azimuth  [deg]	Amplitude (dB)	Phase [Deg]	
-180.0000	-63.2370	150.3730	
-175.0000	-64.7037	145.6087	
-170.0000	-67.6871	161.1801	
-165.0000	-65.5711	-176.2102	
-160.0000	-64.6851	172.2082	
-155.0000	-66.9309	173.5197	
-150.0000	-66.3878	172.7590	
-145.0000	-67.9709	176.4367	
-140.0000	-66.5797	174.2384	
-135.0000	-68.5844	161.3040	
-130.0000	-69.0092	169.3136	
-125.0000	-70.6674	168.8925	
-120.0000	-67.7701	-179.8404	
-115.0000	-69.7234	-175.2234	
-110.0000	-71.7992	169.1038	
-105.0000	-69.4110	174.0865	
-100.0000	-67.7563	-172.9392	
-95.0000	-70.7225	179.8009	
-90.0000	-69.6671	-165.0971	
-85.0000	-69.1467	-165.2710	
-80.0000	-67.7528	-149.8009	
-75.0000	-71.3502	-133.0862	
-70.0000	-69.1443	-135.2406	
-65.0000	-68.3904	-133.5775	
-60.0000	-67.7395	-114.1505	
-55.0000	-68.7112	-111.5959	
-50.0000	-68.6772	-95.2026	
-45.0000	-67.0971	-98.3222	
-40.0000	-67.7418	-77.6205	
-35.0000	-66.5495	-80.4502	
-30.0000	-67.5997	-59.4068	
-25.0000	-65.1898	-55.4047	
-20.0000	-65.8123	-58.5655	
-15.0000	-66.4694	-46.6403	
-10.0000	-65.9234	-33.4035	
-5.0000	-64.7402	-24.9707	
0.0000	-64.1039	-19.2613	
5.0000	-63.7871	-16.4518	
10.0000	-63.9321	-14.0687	
15.0000	-64.2878	-14.1410	
20.0000	-64.2731	-20.5970	
25.0000	-62.6091	-21.6941	
30.0000	-62.4553	-10.7413	
35.0000	-63.8340	-16.7475	
40.0000	-62.8061	-13.5691	
45.0000	-63.7970	-21.9919	
50.0000	-62.9332	-18.2127	
55.0000	-63.3662	-24.9768	
60.0000	-63.2837	-26.8864	
65.0000	-64.1973	-31.0016	
70.0000	-63.3437	-35.2993	
75.0000	-63.1826	-38.7916	
80.0000	-63.5656	-52.8995	
85.0000	-64.3393	-50.9793	
90.0000	-64.1411	-63.0619	
95.0000	-62.9652	-60.5757	
100.0000	-63.2129	-80.3081	
105.0000	-65.0224	-83.5941	
110.0000	-64.0058	-87.0719	
115.0000	-63.0066	-95.3304	
120.0000	-62.3875	-116.9595	
125.0000	-64.7971	-121.8866	
130.0000	-64.1415	-124.9858	
135.0000	-63.4630	-124.0141	
140.0000	-63.6184	-144.2089	
145.0000	-64.0490	-139.0756	
150.0000	-62.9903	-152.3703	
155.0000	-64.3385	-153.9922	
160.0000	-63.2640	-171.0443	
165.0000	-63.1023	-168.2991	
170.0000	-64.6973	177.5899	
175.0000	-63.8217	159.2592	
180.0000	-63.2702	150.2191	
			
			
			
[Side Lobes Table]
			
No.	Rel Ampl	Azimuth  [deg]	Absolute Ampl
1L	-0.58	95.00	-62.97
2L	-0.80	75.00	-63.18
3L	-0.90	60.00	-63.28
1R	-1.08	135.00	-63.46
2R	-0.60	150.00	-62.99
3R	-0.71	165.00	-63.10
		 	
File Name:	uwb_dipole.rff		
			
Polarizat.	0.000	Phase	
Frequency	4.300 G	 [GHz]	
Roll  	30.000	[deg]	
Ch.	Channel1		
Beam			
Switch			
Dir	0.00	dBi	
Azimuth  [deg]	Amplitude (dB)	Phase [Deg]	
-180.0000	-63.6856	152.8161	
-175.0000	-64.2896	145.5039	
-170.0000	-67.1578	150.0027	
-165.0000	-67.3053	179.2661	
-160.0000	-64.7395	175.6093	
-155.0000	-66.5500	162.4797	
-150.0000	-66.8074	167.0976	
-145.0000	-68.6709	156.6873	
-140.0000	-69.0306	170.6917	
-135.0000	-68.4329	161.5624	
-130.0000	-68.9500	167.1582	
-125.0000	-68.4717	153.0866	
-120.0000	-71.4033	166.8838	
-115.0000	-69.8535	151.3237	
-110.0000	-69.2900	155.6899	
-105.0000	-67.7119	-177.5923	
-100.0000	-71.1240	177.5256	
-95.0000	-67.6578	167.4991	
-90.0000	-69.8348	163.6558	
-85.0000	-67.7011	-170.3792	
-80.0000	-69.5338	-165.0548	
-75.0000	-67.3762	-161.4732	
-70.0000	-68.6002	-148.8684	
-65.0000	-66.9523	-133.0371	
-60.0000	-69.9691	-133.4781	
-55.0000	-67.6173	-123.5279	
-50.0000	-68.7230	-119.8840	
-45.0000	-67.4496	-96.2860	
-40.0000	-68.1682	-98.6166	
-35.0000	-66.7488	-84.2708	
-30.0000	-67.9580	-79.5580	
-25.0000	-66.4381	-61.3675	
-20.0000	-65.9750	-63.8666	
-15.0000	-66.8203	-55.4711	
-10.0000	-66.8423	-40.0201	
-5.0000	-65.4514	-29.3102	
0.0000	-64.6774	-21.7244	
5.0000	-64.1348	-17.0095	
10.0000	-64.0210	-13.4280	
15.0000	-64.2058	-12.0075	
20.0000	-64.6918	-14.5045	
25.0000	-63.5411	-20.8181	
30.0000	-62.4290	-14.5057	
35.0000	-63.6844	-9.4907	
40.0000	-62.7956	-16.2889	
45.0000	-63.9352	-10.2492	
50.0000	-63.0668	-19.7644	
55.0000	-63.7035	-18.8369	
60.0000	-63.4970	-22.1371	
65.0000	-63.4165	-24.6474	
70.0000	-64.0686	-32.3524	
75.0000	-64.3328	-38.5573	
80.0000	-65.0393	-38.0058	
85.0000	-63.3461	-40.9273	
90.0000	-63.8719	-51.3399	
95.0000	-63.1268	-67.5319	
100.0000	-65.2247	-69.7191	
105.0000	-64.7436	-70.7484	
110.0000	-63.8562	-90.7269	
115.0000	-63.7830	-103.1121	
120.0000	-66.1390	-108.2405	
125.0000	-64.9399	-101.3126	
130.0000	-63.8316	-119.5471	
135.0000	-63.3496	-128.4518	
140.0000	-65.1632	-134.1467	
145.0000	-63.3647	-135.6706	
150.0000	-63.9474	-148.8567	
155.0000	-63.5990	-144.6288	
160.0000	-64.9199	-164.8581	
165.0000	-63.3837	-170.7891	
170.0000	-64.4878	-173.3521	
175.0000	-64.9198	165.7380	
180.0000	-63.7083	153.0024	
			
			
			
[Side Lobes Table]
			
No.	Rel Ampl	Azimuth  [deg]	Absolute Ampl
1L	-1.59	10.00	-64.02
2L	-3.55	-20.00	-65.98
3L	-4.32	-35.00	-66.75
1R	-0.37	40.00	-62.80
2R	-0.64	50.00	-63.07
3R	-0.99	65.00	-63.42
		 	
File Name:	uwb_dipole.rff		
			
Polarizat.	0.000	Phase	
Frequency	4.300 G	 [GHz]	
Roll  	35.000	[deg]	
Ch.	Channel1		
Beam			
Switch			
Dir	0.00	dBi	
Azimuth  [deg]	Amplitude (dB)	Phase [Deg]	
-180.0000	-64.2161	148.8700	
-175.0000	-65.6827	141.8343	
-170.0000	-68.4849	158.2797	
-165.0000	-66.2107	-179.9923	
-160.0000	-65.3742	164.9793	
-155.0000	-67.3478	161.1884	
-150.0000	-66.5085	154.7911	
-145.0000	-69.0952	148.4483	
-140.0000	-68.5369	150.8352	
-135.0000	-71.4201	138.5591	
-130.0000	-69.5271	160.8711	
-125.0000	-68.7800	142.3054	
-120.0000	-68.9724	159.1742	
-115.0000	-68.2385	159.1009	
-110.0000	-72.2094	136.5431	
-105.0000	-67.2135	161.2132	
-100.0000	-68.2419	169.5638	
-95.0000	-67.1526	168.9516	
-90.0000	-68.8525	162.2992	
-85.0000	-66.9497	-178.8655	
-80.0000	-68.1047	-163.3181	
-75.0000	-67.9643	-152.5682	
-70.0000	-69.2427	-155.3521	
-65.0000	-66.1600	-144.4263	
-60.0000	-68.6787	-134.6301	
-55.0000	-67.4720	-123.2857	
-50.0000	-69.2770	-123.9312	
-45.0000	-67.3565	-103.5441	
-40.0000	-67.9213	-97.0381	
-35.0000	-67.5230	-88.5528	
-30.0000	-67.7723	-72.0765	
-25.0000	-66.2371	-66.9519	
-20.0000	-66.9528	-63.6916	
-15.0000	-67.5746	-50.9321	
-10.0000	-66.7805	-36.2762	
-5.0000	-65.5678	-26.2357	
0.0000	-64.8554	-18.1429	
5.0000	-64.3060	-13.9721	
10.0000	-64.2770	-11.1665	
15.0000	-64.6581	-9.4261	
20.0000	-64.8285	-15.3368	
25.0000	-63.2405	-17.0659	
30.0000	-63.0756	-8.0142	
35.0000	-64.1153	-12.9906	
40.0000	-62.8800	-8.2198	
45.0000	-64.2495	-12.9011	
50.0000	-63.5847	-13.7810	
55.0000	-63.7974	-16.0098	
60.0000	-64.3219	-20.3888	
65.0000	-64.1248	-21.0154	
70.0000	-64.6524	-21.8707	
75.0000	-64.1685	-30.7887	
80.0000	-64.4804	-41.7520	
85.0000	-64.7883	-40.4748	
90.0000	-65.5173	-48.4688	
95.0000	-63.6217	-51.0813	
100.0000	-64.9310	-70.9394	
105.0000	-66.6501	-73.8533	
110.0000	-65.9520	-81.1773	
115.0000	-63.6483	-90.7144	
120.0000	-64.0610	-111.3664	
125.0000	-66.0113	-115.7374	
130.0000	-65.4971	-121.5727	
135.0000	-64.5411	-119.4294	
140.0000	-64.3361	-141.4791	
145.0000	-64.6500	-136.6144	
150.0000	-63.2981	-148.4695	
155.0000	-64.9926	-145.7830	
160.0000	-64.7052	-169.2893	
165.0000	-64.0107	-168.0879	
170.0000	-65.5164	179.9909	
175.0000	-64.8362	158.4526	
180.0000	-64.2527	148.1622	
			
			
			
[Side Lobes Table]
			
No.	Rel Ampl	Azimuth  [deg]	Absolute Ampl
1L	-0.20	30.00	-63.08
2L	-1.40	10.00	-64.28
3L	-3.36	-25.00	-66.24
1R	-0.70	50.00	-63.58
2R	-1.24	65.00	-64.12
3R	-1.29	75.00	-64.17
		 	
File Name:	uwb_dipole.rff		
			
Polarizat.	0.000	Phase	
Frequency	4.300 G	 [GHz]	
Roll  	40.000	[deg]	
Ch.	Channel1		
Beam			
Switch			
Dir	0.00	dBi	
Azimuth  [deg]	Amplitude (dB)	Phase [Deg]	
-180.0000	-64.9607	151.3564	
-175.0000	-65.3657	143.0795	
-170.0000	-67.8778	146.9167	
-165.0000	-68.1374	179.5464	
-160.0000	-65.8370	172.6911	
-155.0000	-67.4310	158.7775	
-150.0000	-66.9453	160.1438	
-145.0000	-67.7817	146.7143	
-140.0000	-67.8727	152.9845	
-135.0000	-67.3260	132.0203	
-130.0000	-71.6156	131.3492	
-125.0000	-69.6697	146.7292	
-120.0000	-69.8943	137.8391	
-115.0000	-70.9978	148.6700	
-110.0000	-66.1405	145.3051	
-105.0000	-68.8012	163.2779	
-100.0000	-68.2734	161.0735	
-95.0000	-68.2766	153.6001	
-90.0000	-66.3114	165.9146	
-85.0000	-67.6398	176.8939	
-80.0000	-67.0627	-175.6712	
-75.0000	-68.2718	-170.0892	
-70.0000	-66.4149	-159.5717	
-65.0000	-68.2153	-142.6223	
-60.0000	-67.0220	-146.7332	
-55.0000	-68.6336	-137.3693	
-50.0000	-66.8602	-126.5908	
-45.0000	-69.2944	-115.0563	
-40.0000	-67.8969	-104.5836	
-35.0000	-67.5659	-98.3821	
-30.0000	-69.0220	-85.2015	
-25.0000	-66.9101	-70.5553	
-20.0000	-66.8649	-71.0299	
-15.0000	-68.1764	-61.0467	
-10.0000	-67.9759	-43.4017	
-5.0000	-66.6605	-31.2204	
0.0000	-65.5678	-20.9836	
5.0000	-64.8498	-15.1282	
10.0000	-64.6491	-11.1591	
15.0000	-64.8333	-7.7904	
20.0000	-65.3683	-9.8009	
25.0000	-64.4097	-16.0788	
30.0000	-63.3336	-10.1988	
35.0000	-64.7010	-6.3039	
40.0000	-63.5003	-13.3344	
45.0000	-64.4177	-4.9513	
50.0000	-64.1434	-13.7076	
55.0000	-64.3100	-13.3492	
60.0000	-64.5110	-12.3180	
65.0000	-64.6448	-17.9216	
70.0000	-64.7047	-22.2842	
75.0000	-65.9071	-26.6278	
80.0000	-66.1690	-24.8954	
85.0000	-64.7120	-30.8576	
90.0000	-64.7696	-39.0034	
95.0000	-64.4602	-58.7724	
100.0000	-66.6618	-50.8938	
105.0000	-66.3414	-59.5804	
110.0000	-65.6657	-79.9160	
115.0000	-66.2718	-103.9411	
120.0000	-67.8941	-100.2897	
125.0000	-66.2659	-97.5391	
130.0000	-65.7305	-110.8183	
135.0000	-64.4635	-125.1972	
140.0000	-67.0806	-129.4997	
145.0000	-64.5834	-133.2273	
150.0000	-65.1452	-147.3383	
155.0000	-64.2884	-143.5045	
160.0000	-65.8592	-162.0697	
165.0000	-64.3784	-169.4093	
170.0000	-65.6178	-172.0261	
175.0000	-66.1185	165.4470	
180.0000	-64.8544	151.4285	
			
			
			
[Side Lobes Table]
			
No.	Rel Ampl	Azimuth  [deg]	Absolute Ampl
1L	-1.32	10.00	-64.65
2L	-3.53	-20.00	-66.86
3L	-4.23	-35.00	-67.57
1R	-0.17	40.00	-63.50
2R	-0.81	50.00	-64.14
3R	-1.38	85.00	-64.71
		 	
File Name:	uwb_dipole.rff		
			
Polarizat.	0.000	Phase	
Frequency	4.300 G	 [GHz]	
Roll  	45.000	[deg]	
Ch.	Channel1		
Beam			
Switch			
Dir	0.00	dBi	
Azimuth  [deg]	Amplitude (dB)	Phase [Deg]	
-180.0000	-65.6110	147.6144	
-175.0000	-66.8111	141.1307	
-170.0000	-69.7006	158.6063	
-165.0000	-67.8539	-178.4111	
-160.0000	-67.2161	164.8737	
-155.0000	-68.7209	161.7305	
-150.0000	-67.7307	153.5168	
-145.0000	-70.3165	155.3241	
-140.0000	-67.3544	155.5575	
-135.0000	-67.7180	132.2027	
-130.0000	-69.3783	126.4254	
-125.0000	-68.7553	139.4312	
-120.0000	-67.6097	135.4334	
-115.0000	-71.4885	150.5622	
-110.0000	-69.2460	144.6247	
-105.0000	-67.3108	154.5552	
-100.0000	-65.7734	161.1593	
-95.0000	-68.3213	157.2152	
-90.0000	-67.1415	165.5187	
-85.0000	-67.3769	178.2740	
-80.0000	-66.6270	-169.6404	
-75.0000	-69.0123	-160.2567	
-70.0000	-67.4241	-162.9568	
-65.0000	-67.4724	-144.8666	
-60.0000	-66.5669	-144.1140	
-55.0000	-68.8170	-133.8025	
-50.0000	-67.7135	-128.6958	
-45.0000	-68.7312	-118.7030	
-40.0000	-68.1538	-102.1508	
-35.0000	-68.1842	-102.6710	
-30.0000	-69.4334	-76.2063	
-25.0000	-66.8552	-72.3105	
-20.0000	-68.0435	-72.9362	
-15.0000	-69.0468	-55.8962	
-10.0000	-68.3868	-38.4927	
-5.0000	-66.9371	-26.2245	
0.0000	-65.8484	-17.8128	
5.0000	-65.1673	-12.8634	
10.0000	-65.1320	-8.6167	
15.0000	-65.3939	-6.2194	
20.0000	-65.7124	-11.8330	
25.0000	-64.3571	-14.3346	
30.0000	-64.2792	-3.5278	
35.0000	-65.5879	-10.0982	
40.0000	-64.0688	-5.3427	
45.0000	-65.5181	-6.6649	
50.0000	-65.1597	-9.5311	
55.0000	-64.7431	-11.2795	
60.0000	-65.6442	-10.3735	
65.0000	-65.6937	-13.5587	
70.0000	-65.6603	-12.2300	
75.0000	-65.3449	-21.9079	
80.0000	-65.7163	-26.2329	
85.0000	-66.3064	-30.2902	
90.0000	-67.1156	-35.2406	
95.0000	-64.6030	-44.8610	
100.0000	-66.7827	-53.6576	
105.0000	-68.9744	-63.0287	
110.0000	-67.4914	-65.6548	
115.0000	-65.5206	-83.4580	
120.0000	-66.4539	-103.8641	
125.0000	-67.5870	-113.2985	
130.0000	-68.0105	-116.3179	
135.0000	-65.6430	-116.6158	
140.0000	-66.3650	-137.6253	
145.0000	-66.4998	-133.1289	
150.0000	-65.0912	-147.9728	
155.0000	-66.3671	-147.2890	
160.0000	-65.5676	-167.9580	
165.0000	-65.0659	-166.5744	
170.0000	-66.8806	-178.0459	
175.0000	-66.3672	159.3334	
180.0000	-65.6319	147.5321	
			
			
			
[Side Lobes Table]
			
No.	Rel Ampl	Azimuth  [deg]	Absolute Ampl
1L	-0.21	30.00	-64.28
2L	-1.06	10.00	-65.13
3L	-2.79	-25.00	-66.86
1R	-0.67	55.00	-64.74
2R	-1.28	75.00	-65.34
3R	-0.53	95.00	-64.60
		 	
File Name:	uwb_dipole.rff		
			
Polarizat.	0.000	Phase	
Frequency	4.300 G	 [GHz]	
Roll  	50.000	[deg]	
Ch.	Channel1		
Beam			
Switch			
Dir	0.00	dBi	
Azimuth  [deg]	Amplitude (dB)	Phase [Deg]	
-180.0000	-66.4169	151.8653	
-175.0000	-66.8236	143.4636	
-170.0000	-69.8193	149.4250	
-165.0000	-70.2869	-179.0984	
-160.0000	-68.2147	173.4674	
-155.0000	-69.5823	158.8179	
-150.0000	-69.1274	158.4212	
-145.0000	-71.7125	144.1556	
-140.0000	-71.5245	167.9009	
-135.0000	-69.2050	152.8335	
-130.0000	-68.9100	137.2998	
-125.0000	-70.2198	135.1718	
-120.0000	-68.9149	147.6793	
-115.0000	-68.4362	126.1129	
-110.0000	-68.3216	138.4803	
-105.0000	-68.2195	157.1437	
-100.0000	-68.9865	165.2574	
-95.0000	-66.4427	151.3164	
-90.0000	-67.2049	165.7907	
-85.0000	-66.7712	173.0865	
-80.0000	-67.8269	-173.8577	
-75.0000	-68.1302	-172.7560	
-70.0000	-66.7415	-154.0029	
-65.0000	-68.0265	-152.4700	
-60.0000	-68.0358	-141.7014	
-55.0000	-67.6564	-145.4349	
-50.0000	-68.2163	-128.8788	
-45.0000	-68.4794	-123.4974	
-40.0000	-69.5417	-113.4459	
-35.0000	-67.7584	-104.2896	
-30.0000	-70.7118	-99.4385	
-25.0000	-68.3577	-70.5248	
-20.0000	-67.6805	-77.5905	
-15.0000	-69.4900	-67.7029	
-10.0000	-69.7069	-46.7019	
-5.0000	-68.2710	-31.3589	
0.0000	-66.9197	-19.7307	
5.0000	-65.9461	-14.4162	
10.0000	-65.8545	-9.6834	
15.0000	-65.8358	-5.3435	
20.0000	-66.3537	-6.9864	
25.0000	-65.5663	-13.8980	
30.0000	-64.6923	-6.1236	
35.0000	-66.4303	-0.9627	
40.0000	-65.1909	-8.5105	
45.0000	-65.8421	1.8338	
50.0000	-66.0070	-5.1710	
55.0000	-66.1971	-8.7125	
60.0000	-65.9172	-3.5626	
65.0000	-66.2550	-9.3919	
70.0000	-66.1100	-13.5288	
75.0000	-67.9001	-14.8178	
80.0000	-66.8501	-18.4971	
85.0000	-65.9408	-17.2150	
90.0000	-65.7591	-27.5795	
95.0000	-66.4576	-47.0528	
100.0000	-67.7483	-41.4331	
105.0000	-68.3914	-44.2753	
110.0000	-67.9172	-70.3653	
115.0000	-68.2157	-91.4056	
120.0000	-70.1694	-85.0998	
125.0000	-69.0992	-89.7853	
130.0000	-67.4749	-103.0121	
135.0000	-66.8720	-123.1627	
140.0000	-68.5694	-125.8005	
145.0000	-66.5929	-126.7871	
150.0000	-67.3399	-145.6410	
155.0000	-66.5253	-143.6373	
160.0000	-67.4995	-163.4888	
165.0000	-65.6358	-168.8935	
170.0000	-66.9548	-169.2750	
175.0000	-67.7532	167.0310	
180.0000	-66.5243	151.1508	
			
			
			
[Side Lobes Table]
			
No.	Rel Ampl	Azimuth  [deg]	Absolute Ampl
1L	-1.14	15.00	-65.84
2L	-2.99	-20.00	-67.68
3L	-3.07	-35.00	-67.76
1R	-0.50	40.00	-65.19
2R	-1.22	60.00	-65.92
3R	-1.42	70.00	-66.11
		 	
File Name:	uwb_dipole.rff		
			
Polarizat.	0.000	Phase	
Frequency	4.300 G	 [GHz]	
Roll  	55.000	[deg]	
Ch.	Channel1		
Beam			
Switch			
Dir	0.00	dBi	
Azimuth  [deg]	Amplitude (dB)	Phase [Deg]	
-180.0000	-67.4072	148.0943	
-175.0000	-68.8826	141.7695	
-170.0000	-72.4193	159.4671	
-165.0000	-70.8450	-176.3804	
-160.0000	-70.0705	164.0071	
-155.0000	-71.2105	158.4805	
-150.0000	-70.7553	143.7246	
-145.0000	-75.7636	132.6961	
-140.0000	-75.2490	149.4413	
-135.0000	-72.9362	144.7766	
-130.0000	-70.6531	132.3860	
-125.0000	-71.9148	129.9250	
-120.0000	-68.2422	148.5032	
-115.0000	-68.9565	143.0986	
-110.0000	-69.6828	147.1505	
-105.0000	-67.5259	148.6287	
-100.0000	-67.4550	167.3586	
-95.0000	-67.8749	155.1231	
-90.0000	-68.5771	172.0533	
-85.0000	-67.2803	175.6038	
-80.0000	-67.6483	-166.4691	
-75.0000	-69.5199	-162.0236	
-70.0000	-67.7020	-153.8789	
-65.0000	-67.7154	-151.6442	
-60.0000	-68.0424	-135.9681	
-55.0000	-68.9127	-138.6501	
-50.0000	-68.8769	-129.1197	
-45.0000	-68.7151	-122.4790	
-40.0000	-69.9037	-106.9988	
-35.0000	-68.6817	-106.4805	
-30.0000	-71.6388	-85.5592	
-25.0000	-68.4519	-72.5066	
-20.0000	-68.9938	-77.1602	
-15.0000	-70.7613	-61.3724	
-10.0000	-70.2468	-41.0387	
-5.0000	-68.6929	-25.9542	
0.0000	-67.2748	-17.7188	
5.0000	-66.6767	-12.2375	
10.0000	-66.4550	-7.4969	
15.0000	-66.6209	-4.6390	
20.0000	-67.0866	-10.1903	
25.0000	-65.8016	-11.7398	
30.0000	-65.8368	0.8518	
35.0000	-67.4028	-4.7556	
40.0000	-65.5933	-0.1976	
45.0000	-67.1228	1.8949	
50.0000	-67.2852	0.4029	
55.0000	-66.7833	-4.4121	
60.0000	-67.1656	-1.3482	
65.0000	-67.9651	-6.8501	
70.0000	-66.7893	-2.0524	
75.0000	-67.7960	-12.1609	
80.0000	-66.9419	-19.0072	
85.0000	-67.7404	-21.9283	
90.0000	-67.8881	-23.1004	
95.0000	-66.3438	-33.2087	
100.0000	-68.5423	-40.7763	
105.0000	-70.8410	-51.0777	
110.0000	-69.9800	-53.3268	
115.0000	-67.3256	-78.7426	
120.0000	-69.0528	-94.6721	
125.0000	-70.3280	-108.9922	
130.0000	-70.8199	-108.2397	
135.0000	-68.3565	-112.0251	
140.0000	-68.1757	-136.3849	
145.0000	-69.1265	-127.8641	
150.0000	-67.4777	-145.6134	
155.0000	-68.7453	-146.4056	
160.0000	-67.5733	-170.7776	
165.0000	-66.6775	-166.8267	
170.0000	-68.8051	-177.2599	
175.0000	-68.2166	159.3789	
180.0000	-67.3916	147.7250	
			
			
			
[Side Lobes Table]
			
No.	Rel Ampl	Azimuth  [deg]	Absolute Ampl
1L	-0.21	25.00	-65.80
2L	-0.86	10.00	-66.45
3L	-2.86	-25.00	-68.45
1R	-1.19	55.00	-66.78
2R	-1.20	70.00	-66.79
3R	-1.35	80.00	-66.94
		 	
File Name:	uwb_dipole.rff		
			
Polarizat.	0.000	Phase	
Frequency	4.300 G	 [GHz]	
Roll  	60.000	[deg]	
Ch.	Channel1		
Beam			
Switch			
Dir	0.00	dBi	
Azimuth  [deg]	Amplitude (dB)	Phase [Deg]	
-180.0000	-68.6142	150.7094	
-175.0000	-69.0473	142.1806	
-170.0000	-72.1776	146.8041	
-165.0000	-74.3188	-176.7624	
-160.0000	-71.8595	171.4850	
-155.0000	-72.2374	153.1091	
-150.0000	-71.7180	149.8467	
-145.0000	-73.0843	123.1443	
-140.0000	-75.8941	121.1954	
-135.0000	-75.5728	120.3690	
-130.0000	-73.0816	128.6036	
-125.0000	-70.6101	117.4911	
-120.0000	-72.7337	136.3744	
-115.0000	-70.0967	135.4680	
-110.0000	-70.1825	136.2895	
-105.0000	-69.1982	161.2677	
-100.0000	-69.4668	160.8721	
-95.0000	-67.0986	159.2342	
-90.0000	-67.8644	156.8996	
-85.0000	-68.0403	-179.8150	
-80.0000	-69.1837	-174.6129	
-75.0000	-68.0624	-165.0589	
-70.0000	-69.2014	-157.3072	
-65.0000	-68.1982	-145.4338	
-60.0000	-69.8173	-144.4628	
-55.0000	-68.6838	-141.1852	
-50.0000	-69.3641	-132.4452	
-45.0000	-69.8632	-121.4546	
-40.0000	-70.3613	-120.0857	
-35.0000	-69.8208	-102.6368	
-30.0000	-71.4681	-106.6610	
-25.0000	-71.2562	-73.4459	
-20.0000	-69.2332	-76.1036	
-15.0000	-71.1546	-71.7269	
-10.0000	-71.8162	-50.9080	
-5.0000	-70.3789	-31.2130	
0.0000	-68.8275	-19.7293	
5.0000	-68.0067	-13.7442	
10.0000	-67.4910	-8.7035	
15.0000	-67.3879	-4.7291	
20.0000	-68.1406	-5.8157	
25.0000	-67.2570	-12.0047	
30.0000	-66.2885	-1.4361	
35.0000	-68.1723	5.0844	
40.0000	-66.9422	-4.2834	
45.0000	-67.4579	7.0867	
50.0000	-67.8540	2.8485	
55.0000	-68.5444	-0.3085	
60.0000	-67.5992	1.9060	
65.0000	-68.8178	1.4169	
70.0000	-67.7142	-7.2363	
75.0000	-69.8456	-4.4172	
80.0000	-68.9511	-8.0443	
85.0000	-68.2082	-7.9243	
90.0000	-67.1876	-22.6528	
95.0000	-68.0825	-35.4392	
100.0000	-69.1171	-30.8010	
105.0000	-71.0092	-33.4989	
110.0000	-69.8335	-58.9212	
115.0000	-71.8104	-88.9389	
120.0000	-72.4659	-69.6347	
125.0000	-72.6532	-85.0587	
130.0000	-69.7993	-96.2198	
135.0000	-69.6774	-120.7808	
140.0000	-72.1853	-122.0748	
145.0000	-69.2355	-124.4372	
150.0000	-69.8705	-144.0156	
155.0000	-69.2853	-140.2413	
160.0000	-70.2271	-167.2815	
165.0000	-68.0166	-172.0107	
170.0000	-69.1556	-170.4187	
175.0000	-69.8893	166.6946	
180.0000	-68.5856	150.2234	
			
			
			
[Side Lobes Table]
			
No.	Rel Ampl	Azimuth  [deg]	Absolute Ampl
1L	-1.10	15.00	-67.39
2L	-2.94	-20.00	-69.23
3L	-3.53	-35.00	-69.82
1R	-0.65	40.00	-66.94
2R	-1.31	60.00	-67.60
3R	-1.43	70.00	-67.71
		 	
File Name:	uwb_dipole.rff		
			
Polarizat.	0.000	Phase	
Frequency	4.300 G	 [GHz]	
Roll  	65.000	[deg]	
Ch.	Channel1		
Beam			
Switch			
Dir	0.00	dBi	
Azimuth  [deg]	Amplitude (dB)	Phase [Deg]	
-180.0000	-70.0104	147.0004	
-175.0000	-71.5343	140.0793	
-170.0000	-76.3453	156.2423	
-165.0000	-75.3471	-175.8068	
-160.0000	-73.4988	160.4131	
-155.0000	-74.1897	153.1744	
-150.0000	-72.4144	140.0054	
-145.0000	-74.4282	119.0889	
-140.0000	-74.1450	113.4541	
-135.0000	-74.4434	113.8926	
-130.0000	-71.7550	126.2350	
-125.0000	-70.6417	117.6721	
-120.0000	-70.4548	136.5611	
-115.0000	-70.2107	139.8504	
-110.0000	-71.9683	136.8776	
-105.0000	-70.4660	161.2479	
-100.0000	-69.9279	170.6122	
-95.0000	-68.1915	172.0356	
-90.0000	-69.3302	166.0272	
-85.0000	-68.9840	179.0838	
-80.0000	-70.7762	-166.1213	
-75.0000	-69.8982	-157.8190	
-70.0000	-71.4990	-155.6240	
-65.0000	-68.7304	-145.2800	
-60.0000	-70.3479	-134.3080	
-55.0000	-70.2614	-136.6208	
-50.0000	-70.9394	-131.6233	
-45.0000	-70.4886	-121.6089	
-40.0000	-71.9525	-114.3907	
-35.0000	-70.8264	-103.5765	
-30.0000	-73.6620	-96.4857	
-25.0000	-71.4840	-69.6350	
-20.0000	-70.8939	-76.1292	
-15.0000	-72.8027	-64.5736	
-10.0000	-73.0297	-44.2849	
-5.0000	-71.3258	-23.9548	
0.0000	-69.6555	-16.1831	
5.0000	-69.1029	-10.6590	
10.0000	-68.5971	-5.3891	
15.0000	-68.9574	-4.6369	
20.0000	-69.6526	-10.3487	
25.0000	-67.8531	-9.2120	
30.0000	-67.8944	6.6171	
35.0000	-69.7426	-0.0524	
40.0000	-67.9094	2.9531	
45.0000	-69.2434	4.8448	
50.0000	-69.4351	7.9540	
55.0000	-69.4676	0.0189	
60.0000	-69.3381	7.3975	
65.0000	-70.7007	-0.4634	
70.0000	-68.8671	4.3647	
75.0000	-69.8614	-4.8711	
80.0000	-68.6320	-9.9533	
85.0000	-70.3699	-11.8907	
90.0000	-69.3008	-19.8080	
95.0000	-68.8188	-23.2158	
100.0000	-70.1541	-31.6134	
105.0000	-74.0478	-39.5383	
110.0000	-72.1211	-46.4664	
115.0000	-70.4321	-75.0380	
120.0000	-72.6622	-82.5586	
125.0000	-73.8648	-110.1671	
130.0000	-75.0070	-97.7853	
135.0000	-70.9682	-107.7985	
140.0000	-72.0981	-133.8638	
145.0000	-72.7463	-130.0827	
150.0000	-70.2335	-142.6368	
155.0000	-72.6076	-143.1871	
160.0000	-70.8414	-174.0257	
165.0000	-69.7275	-170.2038	
170.0000	-71.5667	-179.5629	
175.0000	-70.9219	157.0411	
180.0000	-70.0003	147.1732	
			
			
			
[Side Lobes Table]
			
No.	Rel Ampl	Azimuth  [deg]	Absolute Ampl
1L	-0.74	10.00	-68.60
2L	-3.04	-20.00	-70.89
3L	-2.97	-35.00	-70.83
1R	-0.06	40.00	-67.91
2R	-1.49	60.00	-69.34
3R	-1.01	70.00	-68.87
		 	
File Name:	uwb_dipole.rff		
			
Polarizat.	0.000	Phase	
Frequency	4.300 G	 [GHz]	
Roll  	70.000	[deg]	
Ch.	Channel1		
Beam			
Switch			
Dir	0.00	dBi	
Azimuth  [deg]	Amplitude (dB)	Phase [Deg]	
-180.0000	-71.5588	148.0520	
-175.0000	-72.2077	141.7118	
-170.0000	-76.1550	142.4403	
-165.0000	-79.5016	179.1380	
-160.0000	-75.9962	174.8261	
-155.0000	-75.9727	157.6302	
-150.0000	-74.8208	153.9810	
-145.0000	-74.9893	131.9505	
-140.0000	-75.1633	121.4497	
-135.0000	-75.1164	114.5498	
-130.0000	-74.6742	127.9007	
-125.0000	-71.7598	129.3483	
-120.0000	-72.8565	140.0161	
-115.0000	-71.7608	143.6750	
-110.0000	-70.5397	139.8196	
-105.0000	-72.9777	146.7262	
-100.0000	-72.0315	160.9616	
-95.0000	-71.2636	164.0962	
-90.0000	-69.2173	174.3128	
-85.0000	-69.4947	-179.1528	
-80.0000	-70.6670	-174.6557	
-75.0000	-72.6093	-162.1993	
-70.0000	-71.7789	-159.4259	
-65.0000	-72.0061	-133.4835	
-60.0000	-71.7806	-144.1472	
-55.0000	-71.1003	-135.8147	
-50.0000	-71.8339	-134.2794	
-45.0000	-72.7751	-119.3556	
-40.0000	-72.2450	-118.0779	
-35.0000	-73.2631	-105.3023	
-30.0000	-73.3493	-104.0646	
-25.0000	-75.4048	-81.7438	
-20.0000	-72.1688	-71.9969	
-15.0000	-73.3607	-70.7807	
-10.0000	-74.6202	-55.9951	
-5.0000	-73.9373	-30.0878	
0.0000	-71.8070	-17.9588	
5.0000	-70.8064	-11.5613	
10.0000	-70.2214	-5.8948	
15.0000	-70.1703	-3.8545	
20.0000	-71.3798	-6.8321	
25.0000	-70.0857	-12.1119	
30.0000	-68.9716	1.4150	
35.0000	-71.1955	9.1740	
40.0000	-69.8661	-1.8436	
45.0000	-70.6428	8.0097	
50.0000	-70.3928	6.9496	
55.0000	-71.8781	6.9509	
60.0000	-70.3970	5.9723	
65.0000	-72.1599	9.0328	
70.0000	-70.6027	-5.9986	
75.0000	-72.6217	0.1537	
80.0000	-71.9378	-6.7240	
85.0000	-70.4975	-0.3011	
90.0000	-70.2016	-21.0720	
95.0000	-70.1006	-24.4079	
100.0000	-73.0742	-25.8809	
105.0000	-74.0835	-25.8510	
110.0000	-73.8128	-54.0313	
115.0000	-76.1690	-76.9817	
120.0000	-75.8477	-66.0792	
125.0000	-77.3609	-72.2501	
130.0000	-73.0259	-87.9064	
135.0000	-73.7481	-123.9316	
140.0000	-75.9119	-111.2490	
145.0000	-74.3861	-120.6753	
150.0000	-73.4283	-148.1481	
155.0000	-73.3614	-134.1351	
160.0000	-74.8143	-169.4174	
165.0000	-72.3216	-177.2731	
170.0000	-73.2542	-175.1827	
175.0000	-73.6549	159.8802	
180.0000	-71.5182	147.4904	
			
			
			
[Side Lobes Table]
			
No.	Rel Ampl	Azimuth  [deg]	Absolute Ampl
1L	-1.20	15.00	-70.17
2L	-3.20	-20.00	-72.17
3L	-3.27	-40.00	-72.25
1R	-0.89	40.00	-69.87
2R	-1.42	50.00	-70.39
3R	-1.43	60.00	-70.40
		 	
File Name:	uwb_dipole.rff		
			
Polarizat.	0.000	Phase	
Frequency	4.300 G	 [GHz]	
Roll  	75.000	[deg]	
Ch.	Channel1		
Beam			
Switch			
Dir	0.00	dBi	
Azimuth  [deg]	Amplitude (dB)	Phase [Deg]	
-180.0000	-73.8267	144.2656	
-175.0000	-75.9295	138.3032	
-170.0000	-81.7494	138.9424	
-165.0000	-81.3688	-174.6206	
-160.0000	-78.2095	173.6197	
-155.0000	-79.4759	171.8594	
-150.0000	-77.6562	158.8231	
-145.0000	-79.7024	139.1687	
-140.0000	-77.5773	123.3392	
-135.0000	-77.5517	115.2783	
-130.0000	-76.8242	134.5905	
-125.0000	-75.5922	134.9476	
-120.0000	-74.6447	149.8129	
-115.0000	-73.2096	160.8784	
-110.0000	-72.1625	153.7124	
-105.0000	-74.2794	166.0579	
-100.0000	-71.8350	174.9942	
-95.0000	-73.0213	175.2430	
-90.0000	-72.5126	-177.7356	
-85.0000	-73.2040	-171.1623	
-80.0000	-72.8045	-169.0405	
-75.0000	-75.5680	-161.2453	
-70.0000	-75.3306	-156.9451	
-65.0000	-72.9774	-130.7701	
-60.0000	-74.0291	-133.2426	
-55.0000	-73.3079	-133.0185	
-50.0000	-74.7300	-137.2670	
-45.0000	-74.2396	-116.4363	
-40.0000	-74.8328	-116.5525	
-35.0000	-75.3179	-99.6477	
-30.0000	-76.5381	-103.0401	
-25.0000	-76.5054	-69.1450	
-20.0000	-74.3952	-70.9932	
-15.0000	-75.3646	-66.8778	
-10.0000	-77.1628	-49.1961	
-5.0000	-74.9872	-19.4616	
0.0000	-73.2802	-14.0599	
5.0000	-72.5340	-7.3937	
10.0000	-71.9111	-5.0273	
15.0000	-72.9684	-4.7900	
20.0000	-73.9162	-11.8619	
25.0000	-71.1148	-7.8866	
30.0000	-71.1793	11.1378	
35.0000	-73.8943	-0.9193	
40.0000	-71.5803	6.8950	
45.0000	-73.4519	6.0694	
50.0000	-72.8480	14.4920	
55.0000	-73.9506	3.9580	
60.0000	-72.7258	14.0419	
65.0000	-75.7642	4.0831	
70.0000	-72.7566	7.8492	
75.0000	-73.7071	1.8152	
80.0000	-72.7886	-6.9557	
85.0000	-73.8658	-4.6658	
90.0000	-71.8363	-18.6493	
95.0000	-71.5392	-9.3264	
100.0000	-74.8392	-30.4322	
105.0000	-77.1114	-44.6531	
110.0000	-76.2643	-48.2125	
115.0000	-75.8424	-71.6087	
120.0000	-77.2098	-76.9956	
125.0000	-78.9416	-117.6841	
130.0000	-80.7867	-83.3324	
135.0000	-75.7200	-106.2075	
140.0000	-77.7327	-128.7133	
145.0000	-80.7888	-133.9297	
150.0000	-75.0445	-142.1010	
155.0000	-79.0082	-140.5359	
160.0000	-77.3332	179.7728	
165.0000	-75.6531	-178.9676	
170.0000	-77.2707	172.1613	
175.0000	-75.1927	148.9389	
180.0000	-73.9876	144.3442	
			
			
			
[Side Lobes Table]
			
No.	Rel Ampl	Azimuth  [deg]	Absolute Ampl
1L	-0.80	10.00	-71.91
2L	-3.28	-20.00	-74.40
3L	-3.12	-45.00	-74.24
1R	-0.47	40.00	-71.58
2R	-1.73	50.00	-72.85
3R	-1.61	60.00	-72.73
		 	
File Name:	uwb_dipole.rff		
			
Polarizat.	0.000	Phase	
Frequency	4.300 G	 [GHz]	
Roll  	80.000	[deg]	
Ch.	Channel1		
Beam			
Switch			
Dir	0.00	dBi	
Azimuth  [deg]	Amplitude (dB)	Phase [Deg]	
-180.0000	-76.9652	141.1799	
-175.0000	-78.2261	139.6352	
-170.0000	-82.7617	122.9633	
-165.0000	-90.3945	155.9593	
-160.0000	-82.1022	-156.9413	
-155.0000	-83.1214	-162.5475	
-150.0000	-82.8302	-168.1533	
-145.0000	-85.8045	168.5449	
-140.0000	-85.1573	147.3355	
-135.0000	-81.6619	114.2870	
-130.0000	-81.9806	120.1381	
-125.0000	-79.4866	132.3684	
-120.0000	-80.9517	155.6031	
-115.0000	-78.3637	167.0700	
-110.0000	-77.5039	163.1966	
-105.0000	-79.8496	138.5660	
-100.0000	-79.3282	177.6804	
-95.0000	-72.8170	172.0036	
-90.0000	-73.1263	172.8564	
-85.0000	-74.1678	-179.5968	
-80.0000	-75.7543	-153.5018	
-75.0000	-75.2749	-165.7322	
-70.0000	-78.6308	-147.8737	
-65.0000	-79.8533	-131.1072	
-60.0000	-76.8521	-133.8810	
-55.0000	-76.4150	-128.2504	
-50.0000	-75.7739	-131.3097	
-45.0000	-79.4606	-120.7673	
-40.0000	-76.6344	-114.7935	
-35.0000	-79.6360	-108.4644	
-30.0000	-78.4482	-99.7421	
-25.0000	-81.8290	-85.1604	
-20.0000	-77.3403	-61.8739	
-15.0000	-77.1511	-70.1688	
-10.0000	-79.2565	-64.5369	
-5.0000	-79.0795	-22.1690	
0.0000	-76.5953	-15.0767	
5.0000	-75.7840	-9.8040	
10.0000	-74.7416	-5.7896	
15.0000	-75.1970	-3.8786	
20.0000	-77.5451	-8.1552	
25.0000	-74.9027	-15.0007	
30.0000	-72.6598	6.4429	
35.0000	-76.5760	15.5552	
40.0000	-74.3849	-1.3816	
45.0000	-75.8995	13.5000	
50.0000	-74.8139	7.6545	
55.0000	-77.1507	16.1692	
60.0000	-74.8294	7.4883	
65.0000	-78.0901	20.5130	
70.0000	-76.4502	-4.8591	
75.0000	-78.3040	-8.4556	
80.0000	-77.9930	-0.1316	
85.0000	-77.2647	12.1666	
90.0000	-76.3243	-25.3934	
95.0000	-73.4561	-17.6572	
100.0000	-79.5981	-1.8670	
105.0000	-84.9167	-33.7295	
110.0000	-80.5207	-54.1322	
115.0000	-81.3988	-60.5851	
120.0000	-81.8905	-61.2824	
125.0000	-87.0909	-68.7415	
130.0000	-79.1059	-82.9799	
135.0000	-79.8034	-130.1173	
140.0000	-86.9922	-101.3172	
145.0000	-83.9468	-101.4895	
150.0000	-81.1581	-157.7623	
155.0000	-82.9838	-128.7619	
160.0000	-86.2614	-178.4772	
165.0000	-81.5221	162.7881	
170.0000	-83.1457	165.8920	
175.0000	-80.0547	138.1005	
180.0000	-77.3080	141.2225	
			
			
			
[Side Lobes Table]
			
No.	Rel Ampl	Azimuth  [deg]	Absolute Ampl
1L	-2.08	10.00	-74.74
2L	-4.49	-15.00	-77.15
3L	-5.79	-30.00	-78.45
1R	-1.73	40.00	-74.38
2R	-2.15	50.00	-74.81
3R	-2.17	60.00	-74.83
		 	
File Name:	uwb_dipole.rff		
			
Polarizat.	0.000	Phase	
Frequency	4.300 G	 [GHz]	
Roll  	85.000	[deg]	
Ch.	Channel1		
Beam			
Switch			
Dir	0.00	dBi	
Azimuth  [deg]	Amplitude (dB)	Phase [Deg]	
-180.0000	-82.9643	134.6162	
-175.0000	-86.3145	120.0132	
-170.0000	-87.7287	83.4980	
-165.0000	-90.1089	-103.3040	
-160.0000	-82.2706	-112.9217	
-155.0000	-84.1827	-101.3853	
-150.0000	-86.8542	-117.2699	
-145.0000	-98.0775	-118.1274	
-140.0000	-89.6110	173.8958	
-135.0000	-87.9119	121.7549	
-130.0000	-88.2198	138.5704	
-125.0000	-87.0856	147.5957	
-120.0000	-86.1236	179.3814	
-115.0000	-80.2185	149.9997	
-110.0000	-79.8046	148.0473	
-105.0000	-92.5372	152.7925	
-100.0000	-79.0800	-129.0971	
-95.0000	-75.8407	-163.5793	
-90.0000	-77.0981	-167.5340	
-85.0000	-81.1453	-179.9751	
-80.0000	-80.3792	-126.7640	
-75.0000	-81.9365	149.5662	
-70.0000	-83.2785	-146.3546	
-65.0000	-83.5432	-116.2249	
-60.0000	-80.3630	-115.9423	
-55.0000	-81.1018	-116.9047	
-50.0000	-80.3407	-144.3400	
-45.0000	-84.1210	-101.1010	
-40.0000	-81.5140	-114.4747	
-35.0000	-84.2994	-83.5352	
-30.0000	-83.2001	-103.2315	
-25.0000	-86.7916	-43.6902	
-20.0000	-80.5446	-60.5758	
-15.0000	-80.5002	-64.6745	
-10.0000	-85.0459	-62.5758	
-5.0000	-81.7755	-6.8658	
0.0000	-80.8065	-9.1517	
5.0000	-79.3388	2.2874	
10.0000	-77.8929	-1.4367	
15.0000	-81.5425	2.7371	
20.0000	-83.2892	-19.0356	
25.0000	-77.2331	-6.9775	
30.0000	-76.6850	19.4290	
35.0000	-81.5849	1.5863	
40.0000	-78.3505	8.4103	
45.0000	-80.9641	3.5608	
50.0000	-79.1098	16.5459	
55.0000	-82.1032	9.7627	
60.0000	-79.4494	23.9925	
65.0000	-87.2526	12.2583	
70.0000	-85.2313	23.5269	
75.0000	-81.9693	3.5640	
80.0000	-79.1692	17.6663	
85.0000	-82.1401	29.7757	
90.0000	-78.2492	-24.2126	
95.0000	-76.2657	2.7481	
100.0000	-83.5948	-3.5146	
105.0000	-83.5390	-100.0986	
110.0000	-84.3471	-82.7795	
115.0000	-87.3037	-93.1719	
120.0000	-91.9967	-38.6082	
125.0000	-87.1005	-155.6657	
130.0000	-95.8630	20.3160	
135.0000	-84.2295	-84.7041	
140.0000	-96.1741	-162.6031	
145.0000	-91.1350	57.1619	
150.0000	-91.2414	-107.8979	
155.0000	-100.5047	7.8987	
160.0000	-92.8362	46.6477	
165.0000	-88.4351	106.8311	
170.0000	-90.0575	92.5570	
175.0000	-83.6824	110.9524	
180.0000	-82.5828	135.4646	
			
			
			
[Side Lobes Table]
			
No.	Rel Ampl	Azimuth  [deg]	Absolute Ampl
1L	-3.96	-110.00	-79.80
2L	-12.07	-135.00	-87.91
3L	-6.43	-160.00	-82.27
1R	-4.54	-80.00	-80.38
2R	-4.52	-60.00	-80.36
3R	-4.50	-50.00	-80.34
		 	
File Name:	uwb_dipole.rff		
			
Polarizat.	0.000	Phase	
Frequency	4.300 G	 [GHz]	
Roll  	90.000	[deg]	
Ch.	Channel1		
Beam			
Switch			
Dir	0.00	dBi	
Azimuth  [deg]	Amplitude (dB)	Phase [Deg]	
-180.0000	-90.5373	50.9018	
-175.0000	-104.4719	22.4290	
-170.0000	-88.0245	31.6819	
-165.0000	-89.4640	-15.8028	
-160.0000	-79.6000	-78.0370	
-155.0000	-78.7113	-70.6413	
-150.0000	-82.3879	-63.5087	
-145.0000	-85.3207	-57.2824	
-140.0000	-83.5863	-87.9267	
-135.0000	-91.7556	-97.6876	
-130.0000	-90.9244	-82.7254	
-125.0000	-89.5855	-90.3597	
-120.0000	-85.8968	-67.8914	
-115.0000	-80.6390	-129.9904	
-110.0000	-92.7429	-178.6781	
-105.0000	-81.6322	55.5112	
-100.0000	-80.1730	30.9742	
-95.0000	-83.8495	-129.2957	
-90.0000	-80.1511	-169.8091	
-85.0000	-80.9300	-169.1236	
-80.0000	-87.7124	-101.0475	
-75.0000	-82.4041	-174.4566	
-70.0000	-86.1746	7.9988	
-65.0000	-92.7245	54.3308	
-60.0000	-89.6178	-51.8374	
-55.0000	-91.1193	-107.6753	
-50.0000	-87.3075	-118.1082	
-45.0000	-92.3091	114.4911	
-40.0000	-87.9124	-86.1442	
-35.0000	-101.7835	75.6333	
-30.0000	-91.4689	-60.3534	
-25.0000	-92.3604	106.0944	
-20.0000	-86.6909	-10.5932	
-15.0000	-85.9278	-49.5350	
-10.0000	-87.4222	-95.2629	
-5.0000	-97.7966	49.5053	
0.0000	-89.1040	11.7987	
5.0000	-87.7642	23.6223	
10.0000	-84.8978	7.2409	
15.0000	-89.2442	11.4757	
20.0000	-98.3675	127.5031	
25.0000	-88.3447	-18.8838	
30.0000	-80.9788	18.7672	
35.0000	-89.2980	53.7046	
40.0000	-87.3825	1.7648	
45.0000	-88.9818	48.9650	
50.0000	-88.1230	7.4546	
55.0000	-88.5658	59.1599	
60.0000	-87.0441	27.6946	
65.0000	-88.3935	111.4639	
70.0000	-99.6073	30.2260	
75.0000	-86.9705	-117.2402	
80.0000	-97.7317	23.8488	
85.0000	-81.6502	99.8560	
90.0000	-92.9887	146.0976	
95.0000	-81.8539	21.3152	
100.0000	-84.7702	96.3697	
105.0000	-80.8090	147.0727	
110.0000	-90.2693	-167.4419	
115.0000	-91.1867	21.7492	
120.0000	-95.0473	-20.0454	
125.0000	-85.1861	114.7543	
130.0000	-94.1653	9.3733	
135.0000	-88.8220	152.4310	
140.0000	-81.8839	45.5644	
145.0000	-82.7103	32.2722	
150.0000	-86.7488	59.0139	
155.0000	-81.3025	28.2909	
160.0000	-82.7678	16.0517	
165.0000	-80.0118	35.9509	
170.0000	-82.0094	29.3868	
175.0000	-83.6398	32.6169	
180.0000	-89.1875	52.0182	
			
			
			
[Side Lobes Table]
			
No.	Rel Ampl	Azimuth  [deg]	Absolute Ampl
1L	-9.31	-170.00	-88.02
1R	-4.87	-140.00	-83.59
2R	-1.93	-115.00	-80.64
3R	-1.46	-100.00	-80.17
		 	
File Name:	uwb_dipole.rff		
			
Polarizat.	0.000	Phase	
Frequency	4.300 G	 [GHz]	
Roll  	95.000	[deg]	
Ch.	Channel1		
Beam			
Switch			
Dir	0.00	dBi	
Azimuth  [deg]	Amplitude (dB)	Phase [Deg]	
-180.0000	-82.0290	-25.8458	
-175.0000	-83.6139	-26.9533	
-170.0000	-84.1784	16.5226	
-165.0000	-81.4197	-43.7208	
-160.0000	-75.3154	-63.8758	
-155.0000	-76.8190	-59.4246	
-150.0000	-79.2416	-55.9164	
-145.0000	-79.1844	-57.7503	
-140.0000	-78.9614	-84.2365	
-135.0000	-78.6604	-77.6337	
-130.0000	-78.1434	-65.9221	
-125.0000	-78.1211	-62.8968	
-120.0000	-75.0390	-63.0513	
-115.0000	-84.5646	-115.6713	
-110.0000	-99.5147	128.7153	
-105.0000	-84.0068	20.7378	
-100.0000	-79.9820	-19.4763	
-95.0000	-88.2065	-88.5927	
-90.0000	-87.1958	-39.7143	
-85.0000	-85.3748	-32.1907	
-80.0000	-84.3764	-19.5906	
-75.0000	-77.4159	69.6200	
-70.0000	-84.2051	37.1670	
-65.0000	-80.7523	27.6803	
-60.0000	-84.9155	-0.9929	
-55.0000	-85.0155	38.1429	
-50.0000	-91.1381	96.5097	
-45.0000	-83.4592	52.0906	
-40.0000	-93.1133	80.0062	
-35.0000	-83.2576	54.6786	
-30.0000	-89.2294	96.8222	
-25.0000	-82.4297	74.7011	
-20.0000	-90.1178	42.8004	
-15.0000	-96.9909	-41.3661	
-10.0000	-86.1168	-179.7877	
-5.0000	-85.7549	112.3451	
0.0000	-89.5082	136.0833	
5.0000	-86.7339	132.9133	
10.0000	-93.1860	125.4411	
15.0000	-84.3466	166.6126	
20.0000	-82.8159	172.6196	
25.0000	-93.5526	121.3821	
30.0000	-86.0411	101.8605	
35.0000	-88.2308	164.9929	
40.0000	-90.2789	147.3371	
45.0000	-85.9735	171.3629	
50.0000	-93.2706	159.1046	
55.0000	-85.1058	152.4861	
60.0000	-83.2431	136.9884	
65.0000	-81.0878	170.1149	
70.0000	-79.2781	171.7340	
75.0000	-82.8099	-177.4230	
80.0000	-81.6127	102.0406	
85.0000	-78.9509	117.9333	
90.0000	-100.1653	89.4026	
95.0000	-79.1055	84.9855	
100.0000	-82.2763	128.4337	
105.0000	-78.8486	178.0974	
110.0000	-81.6861	176.7015	
115.0000	-79.6691	127.7799	
120.0000	-79.3166	79.8109	
125.0000	-83.2860	117.9226	
130.0000	-79.0388	76.9616	
135.0000	-83.9804	31.7996	
140.0000	-78.1422	56.8662	
145.0000	-76.8545	49.5239	
150.0000	-77.3528	21.7438	
155.0000	-77.2320	35.0281	
160.0000	-75.7507	13.9938	
165.0000	-75.6685	25.4618	
170.0000	-77.2321	18.3606	
175.0000	-80.1269	5.6444	
180.0000	-82.5871	-29.7158	
			
			
			
[Side Lobes Table]
			
No.	Rel Ampl	Azimuth  [deg]	Absolute Ampl
1L	-0.28	-160.00	-75.32
1R	-4.94	-100.00	-79.98
2R	-2.38	-75.00	-77.42
3R	-5.71	-65.00	-80.75
		 	
File Name:	uwb_dipole.rff		
			
Polarizat.	0.000	Phase	
Frequency	4.300 G	 [GHz]	
Roll  	100.000	[deg]	
Ch.	Channel1		
Beam			
Switch			
Dir	0.00	dBi	
Azimuth  [deg]	Amplitude (dB)	Phase [Deg]	
-180.0000	-76.7781	-25.0115	
-175.0000	-77.1412	-40.4906	
-170.0000	-80.5144	-12.4001	
-165.0000	-80.9112	-5.6124	
-160.0000	-74.0596	-49.2788	
-155.0000	-73.7945	-56.8031	
-150.0000	-76.4759	-46.2044	
-145.0000	-77.1393	-60.3989	
-140.0000	-74.7493	-75.9237	
-135.0000	-74.7647	-73.9007	
-130.0000	-74.4371	-63.4650	
-125.0000	-73.3477	-58.8392	
-120.0000	-72.0048	-44.7650	
-115.0000	-72.9080	-74.8920	
-110.0000	-76.7856	-49.6433	
-105.0000	-77.1252	-0.3513	
-100.0000	-76.6160	11.3305	
-95.0000	-84.2586	-0.6555	
-90.0000	-82.7887	35.2878	
-85.0000	-79.7305	0.9070	
-80.0000	-79.1313	-6.6506	
-75.0000	-81.9603	37.5401	
-70.0000	-75.2012	28.5166	
-65.0000	-74.7480	44.1793	
-60.0000	-78.4257	25.9242	
-55.0000	-79.3897	46.8199	
-50.0000	-79.9169	43.5895	
-45.0000	-78.0513	74.9668	
-40.0000	-80.5020	48.8244	
-35.0000	-78.5350	75.4826	
-30.0000	-82.2039	68.0579	
-25.0000	-77.8073	95.2961	
-20.0000	-81.5061	76.1343	
-15.0000	-85.6846	81.9692	
-10.0000	-84.5601	170.3596	
-5.0000	-79.2875	136.7871	
0.0000	-81.0422	147.9175	
5.0000	-79.0157	150.8363	
10.0000	-80.6816	158.5387	
15.0000	-79.1469	168.0911	
20.0000	-76.5054	168.9045	
25.0000	-79.5866	163.8404	
30.0000	-80.6324	146.8131	
35.0000	-78.9803	166.3499	
40.0000	-79.6720	169.9516	
45.0000	-79.1065	167.5937	
50.0000	-79.4924	-179.3764	
55.0000	-80.1866	158.4017	
60.0000	-79.5270	163.2363	
65.0000	-76.1143	167.5817	
70.0000	-76.7329	169.7713	
75.0000	-76.8768	-168.5835	
80.0000	-79.4406	174.6502	
85.0000	-74.1932	142.3371	
90.0000	-75.3861	148.5185	
95.0000	-77.1711	98.4112	
100.0000	-74.4374	131.3798	
105.0000	-73.0476	145.0677	
110.0000	-77.4119	137.1381	
115.0000	-77.7972	92.1093	
120.0000	-82.6510	89.9503	
125.0000	-76.4852	113.4777	
130.0000	-77.7275	73.1206	
135.0000	-78.6750	77.7377	
140.0000	-74.5536	49.5246	
145.0000	-73.9715	47.6988	
150.0000	-75.4689	35.4304	
155.0000	-72.5736	34.6722	
160.0000	-73.9269	15.3849	
165.0000	-71.8750	20.6341	
170.0000	-73.6923	17.2483	
175.0000	-75.5295	3.1328	
180.0000	-76.9267	-22.6670	
			
			
			
[Side Lobes Table]
			
No.	Rel Ampl	Azimuth  [deg]	Absolute Ampl
1L	-0.70	155.00	-72.57
2L	-2.10	145.00	-73.97
3L	-4.61	125.00	-76.49
		 	
File Name:	uwb_dipole.rff		
			
Polarizat.	0.000	Phase	
Frequency	4.300 G	 [GHz]	
Roll  	105.000	[deg]	
Ch.	Channel1		
Beam			
Switch			
Dir	0.00	dBi	
Azimuth  [deg]	Amplitude (dB)	Phase [Deg]	
-180.0000	-73.6068	-34.7675	
-175.0000	-75.3383	-36.7048	
-170.0000	-79.6369	-4.6157	
-165.0000	-75.2542	-24.6798	
-160.0000	-71.4493	-53.5569	
-155.0000	-73.7168	-53.7106	
-150.0000	-74.2280	-52.6743	
-145.0000	-74.5463	-62.1265	
-140.0000	-72.8280	-73.0462	
-135.0000	-72.3257	-66.4892	
-130.0000	-71.0804	-52.7339	
-125.0000	-70.9019	-44.8953	
-120.0000	-68.4303	-45.3700	
-115.0000	-73.0392	-57.0767	
-110.0000	-75.7931	-36.9360	
-105.0000	-73.8000	-23.1637	
-100.0000	-74.9455	-18.5942	
-95.0000	-79.6346	8.4201	
-90.0000	-75.7140	12.5323	
-85.0000	-73.2494	2.3280	
-80.0000	-73.4788	9.2253	
-75.0000	-73.9799	46.2292	
-70.0000	-73.6434	45.4377	
-65.0000	-72.9218	30.9639	
-60.0000	-74.7222	41.7334	
-55.0000	-74.9971	50.6345	
-50.0000	-77.4546	61.9950	
-45.0000	-73.7544	65.1709	
-40.0000	-78.7128	68.5428	
-35.0000	-74.8036	68.5827	
-30.0000	-78.3257	96.4541	
-25.0000	-75.4117	86.6003	
-20.0000	-78.5494	96.2328	
-15.0000	-83.9788	112.3149	
-10.0000	-77.7029	153.3317	
-5.0000	-76.1834	139.4873	
0.0000	-75.8955	155.5538	
5.0000	-74.5683	156.5518	
10.0000	-76.0609	161.0730	
15.0000	-74.0960	169.8172	
20.0000	-73.8752	169.9983	
25.0000	-75.5724	161.1055	
30.0000	-74.9940	161.5157	
35.0000	-75.2227	168.9336	
40.0000	-75.0878	168.5234	
45.0000	-74.6953	170.3889	
50.0000	-75.9215	179.5325	
55.0000	-74.3894	166.2052	
60.0000	-74.3401	165.6658	
65.0000	-73.9187	174.2847	
70.0000	-72.0880	174.6723	
75.0000	-72.8067	168.0882	
80.0000	-73.4705	138.2153	
85.0000	-73.9721	135.9334	
90.0000	-77.4229	140.9269	
95.0000	-72.9064	115.6813	
100.0000	-73.8751	128.1147	
105.0000	-73.7842	158.4603	
110.0000	-75.8029	149.7343	
115.0000	-73.1137	111.6558	
120.0000	-73.0710	81.6357	
125.0000	-77.3639	86.8558	
130.0000	-73.7929	74.5447	
135.0000	-74.9494	49.4299	
140.0000	-72.4538	47.9419	
145.0000	-71.8282	48.0374	
150.0000	-70.6708	23.5278	
155.0000	-71.4500	33.7913	
160.0000	-70.0588	12.9871	
165.0000	-70.0726	21.5646	
170.0000	-72.4032	9.8031	
175.0000	-73.3838	-14.8178	
180.0000	-73.6367	-36.0424	
			
			
			
[Side Lobes Table]
			
No.	Rel Ampl	Azimuth  [deg]	Absolute Ampl
1L	-3.02	-160.00	-71.45
1R	-5.37	-105.00	-73.80
2R	-4.82	-85.00	-73.25
3R	-4.49	-65.00	-72.92
		 	
File Name:	uwb_dipole.rff		
			
Polarizat.	0.000	Phase	
Frequency	4.300 G	 [GHz]	
Roll  	110.000	[deg]	
Ch.	Channel1		
Beam			
Switch			
Dir	0.00	dBi	
Azimuth  [deg]	Amplitude (dB)	Phase [Deg]	
-180.0000	-71.2992	-31.4849	
-175.0000	-71.9895	-41.6320	
-170.0000	-76.2108	-24.5259	
-165.0000	-75.4400	-4.3778	
-160.0000	-71.0523	-36.1167	
-155.0000	-71.7762	-54.5322	
-150.0000	-73.5338	-46.2882	
-145.0000	-73.2390	-63.4723	
-140.0000	-71.4611	-66.3483	
-135.0000	-71.4130	-62.2201	
-130.0000	-70.5197	-52.1567	
-125.0000	-69.2497	-47.3016	
-120.0000	-67.9813	-37.2999	
-115.0000	-68.4661	-55.1891	
-110.0000	-70.2274	-33.9884	
-105.0000	-69.7570	-13.4725	
-100.0000	-73.2167	-12.5639	
-95.0000	-76.4812	0.0855	
-90.0000	-76.5798	16.5698	
-85.0000	-72.1081	25.5122	
-80.0000	-71.5338	8.3881	
-75.0000	-73.1617	17.9153	
-70.0000	-71.1143	34.8807	
-65.0000	-70.4313	39.5460	
-60.0000	-72.0377	42.1509	
-55.0000	-73.2976	47.5355	
-50.0000	-73.3115	52.3829	
-45.0000	-72.6210	74.1587	
-40.0000	-74.7205	56.3720	
-35.0000	-72.6581	77.0401	
-30.0000	-76.1778	78.7709	
-25.0000	-73.1726	92.5760	
-20.0000	-75.3187	94.0645	
-15.0000	-77.2357	95.6047	
-10.0000	-77.8950	150.3462	
-5.0000	-74.0009	142.8988	
0.0000	-73.6790	155.2526	
5.0000	-72.0194	157.5417	
10.0000	-72.8288	160.1164	
15.0000	-72.2504	166.8379	
20.0000	-71.2136	170.3862	
25.0000	-72.1050	164.4102	
30.0000	-71.9765	159.4927	
35.0000	-72.0948	168.6188	
40.0000	-72.3568	166.0516	
45.0000	-72.2603	166.1789	
50.0000	-71.9418	174.4218	
55.0000	-73.3110	162.9310	
60.0000	-72.0339	167.1020	
65.0000	-71.1768	172.8220	
70.0000	-71.7877	163.9349	
75.0000	-72.1665	168.8605	
80.0000	-72.1819	165.7137	
85.0000	-69.8529	151.7356	
90.0000	-70.6925	142.3040	
95.0000	-71.5830	114.5774	
100.0000	-70.4171	130.1797	
105.0000	-69.5419	140.5947	
110.0000	-72.3268	119.9582	
115.0000	-72.6794	91.8403	
120.0000	-75.5312	82.6359	
125.0000	-73.2133	101.6870	
130.0000	-72.4392	71.9214	
135.0000	-72.8177	62.3480	
140.0000	-70.9452	47.3224	
145.0000	-69.4819	45.9812	
150.0000	-70.8752	30.9342	
155.0000	-68.6021	33.6183	
160.0000	-69.7574	12.3929	
165.0000	-68.0546	15.5075	
170.0000	-69.8410	13.8688	
175.0000	-71.6499	-8.3736	
180.0000	-71.4622	-32.0133	
			
			
			
[Side Lobes Table]
			
No.	Rel Ampl	Azimuth  [deg]	Absolute Ampl
1L	-3.07	-160.00	-71.05
1R	-1.78	-105.00	-69.76
2R	-3.55	-80.00	-71.53
3R	-2.45	-65.00	-70.43
		 	
File Name:	uwb_dipole.rff		
			
Polarizat.	0.000	Phase	
Frequency	4.300 G	 [GHz]	
Roll  	115.000	[deg]	
Ch.	Channel1		
Beam			
Switch			
Dir	0.00	dBi	
Azimuth  [deg]	Amplitude (dB)	Phase [Deg]	
-180.0000	-69.4915	-37.9579	
-175.0000	-71.5941	-39.1096	
-170.0000	-75.9588	-12.8987	
-165.0000	-71.6246	-12.3687	
-160.0000	-69.4672	-40.6828	
-155.0000	-73.5276	-47.7685	
-150.0000	-72.4217	-52.3848	
-145.0000	-73.4478	-56.2519	
-140.0000	-71.2636	-59.6357	
-135.0000	-70.6711	-51.2260	
-130.0000	-68.8667	-42.5913	
-125.0000	-68.4906	-41.1294	
-120.0000	-66.7431	-39.6019	
-115.0000	-70.5330	-36.2394	
-110.0000	-70.1100	-27.0803	
-105.0000	-68.7706	-25.8075	
-100.0000	-70.6269	-12.1222	
-95.0000	-73.7057	-11.0371	
-90.0000	-72.8322	26.0065	
-85.0000	-68.4218	11.2812	
-80.0000	-69.8182	20.6691	
-75.0000	-70.3496	35.5350	
-70.0000	-70.1389	41.2938	
-65.0000	-69.9591	41.1241	
-60.0000	-70.2350	41.0161	
-55.0000	-71.3182	56.1682	
-50.0000	-72.6268	59.9216	
-45.0000	-70.5370	62.7353	
-40.0000	-73.5631	78.0611	
-35.0000	-71.4957	72.6800	
-30.0000	-73.2878	97.5055	
-25.0000	-72.1427	96.0022	
-20.0000	-73.3232	100.1263	
-15.0000	-77.1056	120.5980	
-10.0000	-72.8782	147.4846	
-5.0000	-72.0311	147.4128	
0.0000	-70.8217	157.9436	
5.0000	-70.0685	158.5995	
10.0000	-70.7822	163.8721	
15.0000	-69.7881	167.8857	
20.0000	-69.7874	167.2316	
25.0000	-69.7790	160.1317	
30.0000	-69.5070	164.5574	
35.0000	-70.3909	163.9205	
40.0000	-69.9397	165.2285	
45.0000	-70.1691	164.0999	
50.0000	-70.7708	171.3768	
55.0000	-69.9240	159.0508	
60.0000	-69.7864	165.7679	
65.0000	-70.4505	170.1734	
70.0000	-69.0197	167.2066	
75.0000	-68.7552	157.6212	
80.0000	-69.6301	140.3682	
85.0000	-70.6199	137.4093	
90.0000	-72.3754	134.3003	
95.0000	-69.3326	117.5321	
100.0000	-70.0099	122.4120	
105.0000	-72.7335	141.8082	
110.0000	-71.5707	132.6856	
115.0000	-69.7537	103.4208	
120.0000	-69.2692	79.1538	
125.0000	-72.3953	69.9248	
130.0000	-70.8871	65.5521	
135.0000	-70.4762	51.2266	
140.0000	-68.6422	40.5859	
145.0000	-69.1909	43.7994	
150.0000	-67.2253	23.3950	
155.0000	-68.7290	29.0248	
160.0000	-67.0995	10.4703	
165.0000	-67.1300	16.8292	
170.0000	-69.6901	4.7754	
175.0000	-70.0742	-19.0197	
180.0000	-69.4406	-38.5486	
			
			
			
[Side Lobes Table]
			
No.	Rel Ampl	Azimuth  [deg]	Absolute Ampl
1L	-5.68	-150.00	-72.42
2L	-2.72	-160.00	-69.47
1R	-2.03	-105.00	-68.77
2R	-1.68	-85.00	-68.42
3R	-3.22	-65.00	-69.96
		 	
File Name:	uwb_dipole.rff		
			
Polarizat.	0.000	Phase	
Frequency	4.300 G	 [GHz]	
Roll  	120.000	[deg]	
Ch.	Channel1		
Beam			
Switch			
Dir	0.00	dBi	
Azimuth  [deg]	Amplitude (dB)	Phase [Deg]	
-180.0000	-68.2725	-32.9866	
-175.0000	-68.8851	-42.0587	
-170.0000	-72.9170	-30.8589	
-165.0000	-71.9840	-1.6220	
-160.0000	-68.5333	-23.0993	
-155.0000	-71.6265	-43.4163	
-150.0000	-72.6134	-31.6946	
-145.0000	-73.2082	-52.0713	
-140.0000	-70.7177	-43.1662	
-135.0000	-70.6627	-41.1697	
-130.0000	-69.2961	-35.6812	
-125.0000	-68.0978	-40.5367	
-120.0000	-67.5945	-33.2050	
-115.0000	-68.0881	-42.0452	
-110.0000	-67.3227	-24.3987	
-105.0000	-67.1186	-10.3617	
-100.0000	-69.5119	-2.8897	
-95.0000	-70.4878	-13.6899	
-90.0000	-72.9075	19.6288	
-85.0000	-68.1604	17.8892	
-80.0000	-69.4837	19.3543	
-75.0000	-68.9926	17.0222	
-70.0000	-68.3662	36.1845	
-65.0000	-68.6270	42.6024	
-60.0000	-68.8321	43.7437	
-55.0000	-70.3466	52.0835	
-50.0000	-70.1877	56.2692	
-45.0000	-69.6932	71.0673	
-40.0000	-72.0147	67.7793	
-35.0000	-69.8644	76.6845	
-30.0000	-73.0566	88.6795	
-25.0000	-70.3971	97.4369	
-20.0000	-71.4578	102.3041	
-15.0000	-73.6329	106.1592	
-10.0000	-73.3188	146.9409	
-5.0000	-70.5258	147.0446	
0.0000	-69.9464	156.3280	
5.0000	-68.5534	159.2079	
10.0000	-68.9292	161.7587	
15.0000	-68.7113	165.2167	
20.0000	-68.4426	166.7808	
25.0000	-68.5580	161.9315	
30.0000	-67.7630	160.8431	
35.0000	-68.4243	165.6504	
40.0000	-68.3343	160.2450	
45.0000	-68.4966	162.0848	
50.0000	-68.2620	166.1894	
55.0000	-69.3996	158.2264	
60.0000	-68.4616	162.7151	
65.0000	-68.2542	164.7442	
70.0000	-68.5887	153.8702	
75.0000	-69.2579	154.5949	
80.0000	-69.4026	156.0458	
85.0000	-67.3833	146.8398	
90.0000	-67.6320	136.8210	
95.0000	-68.4572	112.7358	
100.0000	-67.9599	123.4636	
105.0000	-68.1116	129.9852	
110.0000	-68.7303	105.1255	
115.0000	-69.3157	79.3235	
120.0000	-71.4970	74.2941	
125.0000	-70.4134	84.7016	
130.0000	-69.5521	64.4401	
135.0000	-68.8403	54.2925	
140.0000	-68.1123	40.1887	
145.0000	-66.9687	44.0422	
150.0000	-67.5136	27.4021	
155.0000	-66.5149	29.6888	
160.0000	-67.0991	11.1541	
165.0000	-65.5967	13.4091	
170.0000	-67.7281	11.7411	
175.0000	-69.0936	-13.4929	
180.0000	-68.3575	-33.1731	
			
			
			
[Side Lobes Table]
			
No.	Rel Ampl	Azimuth  [deg]	Absolute Ampl
1L	-0.92	155.00	-66.51
2L	-1.37	145.00	-66.97
3L	-2.36	100.00	-67.96
		 	
File Name:	uwb_dipole.rff		
			
Polarizat.	0.000	Phase	
Frequency	4.300 G	 [GHz]	
Roll  	125.000	[deg]	
Ch.	Channel1		
Beam			
Switch			
Dir	0.00	dBi	
Azimuth  [deg]	Amplitude (dB)	Phase [Deg]	
-180.0000	-66.8911	-38.5869	
-175.0000	-69.1632	-40.8670	
-170.0000	-73.4341	-16.6827	
-165.0000	-68.6725	-6.7413	
-160.0000	-67.9577	-28.3544	
-155.0000	-73.0445	-22.5467	
-150.0000	-71.0759	-32.6653	
-145.0000	-72.5697	-25.1249	
-140.0000	-69.4961	-32.5014	
-135.0000	-68.9010	-29.9372	
-130.0000	-67.6030	-31.8408	
-125.0000	-68.2625	-33.7238	
-120.0000	-66.9600	-28.5207	
-115.0000	-68.7054	-18.2032	
-110.0000	-68.8704	-22.2448	
-105.0000	-67.2113	-18.3826	
-100.0000	-66.5674	-5.0609	
-95.0000	-71.4132	-3.5906	
-90.0000	-68.7679	12.7735	
-85.0000	-67.9098	17.1020	
-80.0000	-66.5087	21.9570	
-75.0000	-68.6519	43.2744	
-70.0000	-68.0057	38.2998	
-65.0000	-67.6800	44.0246	
-60.0000	-68.8060	48.3536	
-55.0000	-68.8273	54.9928	
-50.0000	-69.8924	66.4945	
-45.0000	-69.1538	67.0845	
-40.0000	-69.8201	83.1308	
-35.0000	-70.6105	79.1413	
-30.0000	-70.2114	101.9625	
-25.0000	-70.2020	102.7633	
-20.0000	-70.4121	107.4257	
-15.0000	-73.3983	125.5586	
-10.0000	-70.2689	148.2361	
-5.0000	-69.1288	150.7730	
0.0000	-67.8543	158.7177	
5.0000	-67.1694	158.9621	
10.0000	-67.6436	161.8594	
15.0000	-67.4631	165.6743	
20.0000	-67.4580	163.5379	
25.0000	-66.7293	158.6181	
30.0000	-66.2964	163.9400	
35.0000	-67.2998	160.4882	
40.0000	-66.7084	160.1321	
45.0000	-67.0188	158.3018	
50.0000	-67.6384	163.6559	
55.0000	-67.1076	156.4165	
60.0000	-67.5723	156.3170	
65.0000	-68.0719	158.1319	
70.0000	-66.8150	156.8660	
75.0000	-66.3798	149.2777	
80.0000	-66.9804	131.1333	
85.0000	-67.8934	129.4305	
90.0000	-69.2692	128.2816	
95.0000	-66.6106	115.3272	
100.0000	-67.9089	112.3958	
105.0000	-70.9353	119.7871	
110.0000	-70.2015	115.1394	
115.0000	-66.7264	91.4891	
120.0000	-66.7623	69.9524	
125.0000	-69.0697	61.7964	
130.0000	-67.9111	52.5058	
135.0000	-67.9342	46.1312	
140.0000	-66.1052	37.5607	
145.0000	-66.6203	35.6741	
150.0000	-65.2107	25.6655	
155.0000	-66.6064	23.0666	
160.0000	-65.0708	9.5341	
165.0000	-65.1608	15.9530	
170.0000	-67.7679	4.2331	
175.0000	-67.7669	-22.6586	
180.0000	-66.9012	-39.0180	
			
			
			
[Side Lobes Table]
			
No.	Rel Ampl	Azimuth  [deg]	Absolute Ampl
1L	-0.14	150.00	-65.21
2L	-1.03	140.00	-66.11
3L	-2.84	130.00	-67.91
		 	
File Name:	uwb_dipole.rff		
			
Polarizat.	0.000	Phase	
Frequency	4.300 G	 [GHz]	
Roll  	130.000	[deg]	
Ch.	Channel1		
Beam			
Switch			
Dir	0.00	dBi	
Azimuth  [deg]	Amplitude (dB)	Phase [Deg]	
-180.0000	-66.1936	-36.4583	
-175.0000	-66.8896	-41.7185	
-170.0000	-71.2369	-31.6874	
-165.0000	-70.0251	-0.2054	
-160.0000	-66.3908	-15.6466	
-155.0000	-70.1407	-25.6189	
-150.0000	-69.8703	-8.1641	
-145.0000	-71.4590	-25.6638	
-140.0000	-67.6486	-21.9169	
-135.0000	-67.9082	-26.1709	
-130.0000	-67.3738	-26.9911	
-125.0000	-67.7108	-32.7228	
-120.0000	-67.5746	-19.1877	
-115.0000	-67.1239	-25.9739	
-110.0000	-66.1488	-22.3746	
-105.0000	-65.8831	-0.4266	
-100.0000	-66.9635	2.2117	
-95.0000	-68.7962	-12.9438	
-90.0000	-68.8491	10.7043	
-85.0000	-67.6576	22.5015	
-80.0000	-67.2372	19.9896	
-75.0000	-68.4936	27.5286	
-70.0000	-66.7426	33.1809	
-65.0000	-67.0638	48.9176	
-60.0000	-68.3600	49.6695	
-55.0000	-68.1210	51.2063	
-50.0000	-69.1049	66.4557	
-45.0000	-68.6448	68.4282	
-40.0000	-69.6328	79.3495	
-35.0000	-69.2879	80.1699	
-30.0000	-70.1587	98.1905	
-25.0000	-69.4839	103.3311	
-20.0000	-69.0152	110.0445	
-15.0000	-71.3686	114.7906	
-10.0000	-70.3551	147.3660	
-5.0000	-68.2824	149.1198	
0.0000	-67.4159	156.7137	
5.0000	-66.3706	159.5249	
10.0000	-66.4226	160.3141	
15.0000	-66.5442	162.8961	
20.0000	-66.6271	163.5473	
25.0000	-66.1745	158.8851	
30.0000	-65.1218	160.0326	
35.0000	-66.0475	163.3974	
40.0000	-65.7122	155.2405	
45.0000	-65.8392	157.1172	
50.0000	-65.8993	160.5462	
55.0000	-66.9583	153.0859	
60.0000	-66.5735	154.2725	
65.0000	-66.4556	151.8325	
70.0000	-66.1587	141.1902	
75.0000	-67.6255	142.8764	
80.0000	-68.4751	139.5233	
85.0000	-65.7367	136.6341	
90.0000	-66.0520	127.2880	
95.0000	-65.6967	105.3611	
100.0000	-66.9768	113.1914	
105.0000	-66.7554	117.6201	
110.0000	-66.5083	91.8034	
115.0000	-66.8313	66.0868	
120.0000	-68.4290	58.7599	
125.0000	-68.3376	72.0849	
130.0000	-66.8014	52.5773	
135.0000	-66.4434	47.4794	
140.0000	-65.9373	35.5471	
145.0000	-65.0264	35.5024	
150.0000	-65.2564	27.5276	
155.0000	-64.7617	26.1889	
160.0000	-65.2772	8.8805	
165.0000	-63.9096	12.1882	
170.0000	-66.4139	10.4842	
175.0000	-67.4763	-15.9685	
180.0000	-66.2660	-35.9472	
			
			
			
[Side Lobes Table]
			
No.	Rel Ampl	Azimuth  [deg]	Absolute Ampl
1L	-0.85	155.00	-64.76
2L	-1.12	145.00	-65.03
3L	-2.60	110.00	-66.51
		 	
File Name:	uwb_dipole.rff		
			
Polarizat.	0.000	Phase	
Frequency	4.300 G	 [GHz]	
Roll  	135.000	[deg]	
Ch.	Channel1		
Beam			
Switch			
Dir	0.00	dBi	
Azimuth  [deg]	Amplitude (dB)	Phase [Deg]	
-180.0000	-65.2838	-39.1534	
-175.0000	-67.5065	-39.9856	
-170.0000	-71.9371	-16.7382	
-165.0000	-67.0885	-2.0046	
-160.0000	-66.2820	-21.1035	
-155.0000	-70.0920	-2.9395	
-150.0000	-67.6402	-15.4821	
-145.0000	-68.8669	-9.9038	
-140.0000	-66.5021	-27.2889	
-135.0000	-67.0408	-28.0686	
-130.0000	-67.2127	-27.5411	
-125.0000	-68.3034	-21.1880	
-120.0000	-65.8721	-13.6632	
-115.0000	-67.1468	-13.2674	
-110.0000	-68.9822	-13.5519	
-105.0000	-65.3072	-10.0326	
-100.0000	-65.6759	-2.4262	
-95.0000	-69.0518	1.1830	
-90.0000	-68.6701	11.8990	
-85.0000	-66.2851	14.8971	
-80.0000	-66.8351	30.5396	
-75.0000	-66.8105	42.1421	
-70.0000	-68.0583	44.5614	
-65.0000	-67.4221	42.8433	
-60.0000	-67.1771	59.3082	
-55.0000	-69.4439	58.6144	
-50.0000	-67.8398	69.9949	
-45.0000	-69.0935	76.7377	
-40.0000	-68.7440	84.4003	
-35.0000	-69.3035	94.4148	
-30.0000	-69.1042	102.1072	
-25.0000	-68.3852	115.0744	
-20.0000	-68.5888	112.2777	
-15.0000	-70.6071	134.2785	
-10.0000	-68.3174	148.9555	
-5.0000	-67.0376	152.0420	
0.0000	-65.9600	158.5507	
5.0000	-65.3174	158.9341	
10.0000	-65.6605	159.7308	
15.0000	-65.7765	161.9537	
20.0000	-65.9657	158.7215	
25.0000	-64.8116	156.7081	
30.0000	-64.4801	163.3975	
35.0000	-65.4633	157.9418	
40.0000	-64.6898	156.3441	
45.0000	-65.2204	154.4971	
50.0000	-66.0449	156.2338	
55.0000	-65.3730	146.9166	
60.0000	-65.7943	141.8422	
65.0000	-66.0896	144.4727	
70.0000	-65.5355	146.3151	
75.0000	-65.3465	134.9245	
80.0000	-65.0566	120.0113	
85.0000	-66.5591	118.0681	
90.0000	-66.9182	113.8068	
95.0000	-65.2205	109.1048	
100.0000	-66.1209	94.4829	
105.0000	-69.9908	95.5656	
110.0000	-67.7729	95.5002	
115.0000	-65.1838	79.3348	
120.0000	-64.5566	61.6150	
125.0000	-66.7010	46.3187	
130.0000	-65.8991	45.9542	
135.0000	-65.6545	39.6627	
140.0000	-64.5752	29.9965	
145.0000	-64.4326	32.5816	
150.0000	-63.9990	21.9099	
155.0000	-64.8075	22.5796	
160.0000	-63.7277	7.3312	
165.0000	-64.1526	14.8464	
170.0000	-66.9049	0.9294	
175.0000	-66.3536	-26.7936	
180.0000	-65.2852	-39.5053	
			
			
			
[Side Lobes Table]
			
No.	Rel Ampl	Azimuth  [deg]	Absolute Ampl
1L	-0.27	150.00	-64.00
2L	-0.83	120.00	-64.56
3L	-1.49	95.00	-65.22
		 	
File Name:	uwb_dipole.rff		
			
Polarizat.	0.000	Phase	
Frequency	4.300 G	 [GHz]	
Roll  	140.000	[deg]	
Ch.	Channel1		
Beam			
Switch			
Dir	0.00	dBi	
Azimuth  [deg]	Amplitude (dB)	Phase [Deg]	
-180.0000	-64.9322	-37.6519	
-175.0000	-65.5663	-40.7918	
-170.0000	-69.8889	-31.4290	
-165.0000	-68.7181	3.3081	
-160.0000	-65.0579	-11.1743	
-155.0000	-68.2798	-14.1641	
-150.0000	-66.2398	0.9212	
-145.0000	-68.4831	-18.9439	
-140.0000	-66.0275	-21.0784	
-135.0000	-67.5406	-26.3618	
-130.0000	-68.0439	-23.7847	
-125.0000	-67.9513	-17.1815	
-120.0000	-66.5145	-7.8233	
-115.0000	-66.7769	-23.6149	
-110.0000	-66.1888	-11.8879	
-105.0000	-64.4809	5.5180	
-100.0000	-67.8313	2.5526	
-95.0000	-68.0886	-5.1017	
-90.0000	-68.8007	8.2425	
-85.0000	-66.7680	25.1702	
-80.0000	-68.2106	28.7957	
-75.0000	-67.0565	29.0995	
-70.0000	-67.1803	40.9057	
-65.0000	-67.0436	48.5309	
-60.0000	-67.7989	63.5201	
-55.0000	-68.9430	54.2160	
-50.0000	-67.3794	74.7239	
-45.0000	-69.3135	78.6248	
-40.0000	-68.2094	83.5542	
-35.0000	-68.9075	95.1298	
-30.0000	-68.6983	100.7647	
-25.0000	-68.5156	116.8366	
-20.0000	-67.2287	116.0625	
-15.0000	-69.6056	123.8601	
-10.0000	-68.2706	147.6712	
-5.0000	-66.6909	151.4094	
0.0000	-65.6902	156.5922	
5.0000	-64.8042	158.9116	
10.0000	-64.7540	159.0693	
15.0000	-65.0451	159.6111	
20.0000	-65.4481	158.0371	
25.0000	-64.9209	153.3155	
30.0000	-63.7834	156.5879	
35.0000	-64.8637	159.6406	
40.0000	-64.3019	150.7638	
45.0000	-64.6143	151.9318	
50.0000	-64.7655	150.2798	
55.0000	-65.2132	140.3917	
60.0000	-64.8659	141.6920	
65.0000	-64.3909	139.6302	
70.0000	-64.9422	130.5793	
75.0000	-66.1061	123.1609	
80.0000	-66.9654	121.9799	
85.0000	-64.9502	124.6600	
90.0000	-64.4713	113.2592	
95.0000	-64.4110	96.6863	
100.0000	-65.4269	96.0491	
105.0000	-65.9135	103.0091	
110.0000	-64.2058	76.4566	
115.0000	-64.3944	58.8615	
120.0000	-66.0311	48.9831	
125.0000	-66.6080	54.6273	
130.0000	-65.1759	46.3105	
135.0000	-64.4477	38.3841	
140.0000	-64.5833	29.7367	
145.0000	-63.4349	32.0663	
150.0000	-64.2133	21.2216	
155.0000	-63.3148	22.8968	
160.0000	-64.2341	7.4037	
165.0000	-63.0037	11.1100	
170.0000	-65.7565	8.6780	
175.0000	-66.5013	-19.8923	
180.0000	-64.9077	-37.6337	
			
			
			
[Side Lobes Table]
			
No.	Rel Ampl	Azimuth  [deg]	Absolute Ampl
1L	-0.31	155.00	-63.31
2L	-0.43	145.00	-63.43
3L	-1.44	135.00	-64.45
		 	
File Name:	uwb_dipole.rff		
			
Polarizat.	0.000	Phase	
Frequency	4.300 G	 [GHz]	
Roll  	145.000	[deg]	
Ch.	Channel1		
Beam			
Switch			
Dir	0.00	dBi	
Azimuth  [deg]	Amplitude (dB)	Phase [Deg]	
-180.0000	-64.1728	-40.1013	
-175.0000	-66.5931	-38.9391	
-170.0000	-70.8779	-11.2635	
-165.0000	-65.9460	1.4484	
-160.0000	-65.1696	-15.1707	
-155.0000	-67.3818	8.0355	
-150.0000	-65.3871	-8.9535	
-145.0000	-67.9632	-4.4314	
-140.0000	-66.9121	-21.8658	
-135.0000	-67.8428	-18.8294	
-130.0000	-67.8800	-11.4056	
-125.0000	-67.4112	-8.5453	
-120.0000	-65.5691	-9.3440	
-115.0000	-68.2885	1.2944	
-110.0000	-68.0729	-8.5298	
-105.0000	-66.3985	-15.8006	
-100.0000	-66.1920	8.2173	
-95.0000	-70.1914	2.1590	
-90.0000	-68.9314	24.2763	
-85.0000	-67.3975	20.4272	
-80.0000	-66.0275	36.8710	
-75.0000	-68.2660	48.9598	
-70.0000	-68.0626	48.0836	
-65.0000	-68.1493	57.5147	
-60.0000	-67.5170	61.1557	
-55.0000	-68.4795	77.8292	
-50.0000	-68.8186	71.3253	
-45.0000	-67.7521	93.4273	
-40.0000	-69.2804	94.0609	
-35.0000	-67.5151	105.4891	
-30.0000	-68.9830	113.3389	
-25.0000	-66.6404	124.2725	
-20.0000	-67.3861	118.1687	
-15.0000	-68.5251	139.0146	
-10.0000	-66.8335	149.8893	
-5.0000	-65.4743	153.8683	
0.0000	-64.6274	158.1397	
5.0000	-64.0586	158.5068	
10.0000	-64.2761	158.0254	
15.0000	-64.6720	158.1311	
20.0000	-64.9913	152.0327	
25.0000	-63.8108	151.1352	
30.0000	-63.7523	159.0250	
35.0000	-64.6802	150.8937	
40.0000	-63.7152	149.3705	
45.0000	-64.1719	144.9631	
50.0000	-64.4227	143.4643	
55.0000	-63.6510	138.3411	
60.0000	-64.3984	133.6073	
65.0000	-65.2778	133.5420	
70.0000	-64.5416	131.7684	
75.0000	-64.0126	122.8503	
80.0000	-63.6940	106.2669	
85.0000	-65.0811	106.4904	
90.0000	-65.7616	100.2544	
95.0000	-63.8520	95.2234	
100.0000	-64.8621	83.2289	
105.0000	-67.4847	71.5014	
110.0000	-66.5087	81.4624	
115.0000	-63.5974	69.2825	
120.0000	-63.2153	51.5779	
125.0000	-64.5997	40.2066	
130.0000	-64.3503	34.6986	
135.0000	-64.3379	34.4241	
140.0000	-63.1551	26.6053	
145.0000	-63.8584	26.9248	
150.0000	-62.6029	17.8725	
155.0000	-63.7870	21.8990	
160.0000	-62.9943	6.7774	
165.0000	-63.6017	13.1564	
170.0000	-66.2805	-1.4474	
175.0000	-65.4344	-30.5318	
180.0000	-64.1860	-40.2947	
			
			
			
[Side Lobes Table]
			
No.	Rel Ampl	Azimuth  [deg]	Absolute Ampl
1L	-0.55	140.00	-63.16
2L	-0.61	120.00	-63.22
3L	-1.25	95.00	-63.85
1R	-0.39	160.00	-62.99
		 	
File Name:	uwb_dipole.rff		
			
Polarizat.	0.000	Phase	
Frequency	4.300 G	 [GHz]	
Roll  	150.000	[deg]	
Ch.	Channel1		
Beam			
Switch			
Dir	0.00	dBi	
Azimuth  [deg]	Amplitude (dB)	Phase [Deg]	
-180.0000	-64.0699	-39.6192	
-175.0000	-64.5959	-40.4155	
-170.0000	-69.4702	-25.9680	
-165.0000	-67.7724	9.5362	
-160.0000	-64.2497	-5.7471	
-155.0000	-66.8429	-2.1352	
-150.0000	-63.8725	7.7262	
-145.0000	-67.2817	-8.1098	
-140.0000	-66.1447	-7.9436	
-135.0000	-68.0883	-6.5694	
-130.0000	-68.6116	-3.0676	
-125.0000	-67.0457	-1.9028	
-120.0000	-66.7323	-2.3825	
-115.0000	-68.5955	-14.1308	
-110.0000	-65.7042	-5.0795	
-105.0000	-66.4347	4.4690	
-100.0000	-68.9100	21.1364	
-95.0000	-70.8262	-0.2176	
-90.0000	-69.0331	25.8541	
-85.0000	-68.2791	32.5606	
-80.0000	-67.7317	42.7432	
-75.0000	-70.0667	40.5154	
-70.0000	-67.3228	48.3224	
-65.0000	-68.1521	64.7323	
-60.0000	-68.3521	64.8964	
-55.0000	-68.6281	79.9131	
-50.0000	-68.3477	74.8909	
-45.0000	-67.9437	99.3883	
-40.0000	-68.8332	91.7938	
-35.0000	-67.2509	112.8138	
-30.0000	-68.3538	108.1913	
-25.0000	-66.9188	129.9884	
-20.0000	-66.1854	121.7956	
-15.0000	-67.9374	132.8587	
-10.0000	-66.7207	149.2859	
-5.0000	-65.4104	153.7272	
0.0000	-64.4926	156.9446	
5.0000	-63.6549	158.3115	
10.0000	-63.6664	158.4533	
15.0000	-63.9040	157.7130	
20.0000	-64.5178	152.6430	
25.0000	-63.9776	146.5307	
30.0000	-63.0726	150.7545	
35.0000	-64.3803	151.3494	
40.0000	-63.4760	142.8878	
45.0000	-63.6354	144.4276	
50.0000	-63.4986	141.6049	
55.0000	-63.9549	133.6349	
60.0000	-64.0820	134.8505	
65.0000	-63.7965	129.9689	
70.0000	-63.5411	118.5641	
75.0000	-64.6859	109.8647	
80.0000	-65.6125	105.4409	
85.0000	-63.8664	115.3073	
90.0000	-63.6955	99.2098	
95.0000	-63.0039	87.4852	
100.0000	-64.4770	84.2636	
105.0000	-64.5447	85.9687	
110.0000	-62.8560	65.5441	
115.0000	-62.6953	50.7707	
120.0000	-64.4856	39.2266	
125.0000	-65.2324	47.3995	
130.0000	-63.6149	37.1863	
135.0000	-63.4427	33.9093	
140.0000	-63.0635	24.8512	
145.0000	-63.2695	26.5381	
150.0000	-62.8459	14.3741	
155.0000	-62.6318	22.2599	
160.0000	-63.6550	6.6767	
165.0000	-62.6468	8.9228	
170.0000	-65.2717	5.4523	
175.0000	-66.1977	-23.3824	
180.0000	-64.0696	-39.8234	
			
			
			
[Side Lobes Table]
			
No.	Rel Ampl	Azimuth  [deg]	Absolute Ampl
1L	-0.43	140.00	-63.06
2L	-0.06	115.00	-62.70
3L	-0.37	95.00	-63.00
1R	-0.01	165.00	-62.65
		 	
File Name:	uwb_dipole.rff		
			
Polarizat.	0.000	Phase	
Frequency	4.300 G	 [GHz]	
Roll  	155.000	[deg]	
Ch.	Channel1		
Beam			
Switch			
Dir	0.00	dBi	
Azimuth  [deg]	Amplitude (dB)	Phase [Deg]	
-180.0000	-63.4506	-40.9930	
-175.0000	-65.7455	-37.5233	
-170.0000	-69.8784	-6.5998	
-165.0000	-65.1899	10.0649	
-160.0000	-64.2236	-6.9697	
-155.0000	-64.8834	12.1462	
-150.0000	-63.3014	-2.2754	
-145.0000	-66.3745	6.9125	
-140.0000	-67.1482	-5.0025	
-135.0000	-67.6220	3.6119	
-130.0000	-66.8808	11.1656	
-125.0000	-67.1602	-2.1976	
-120.0000	-67.0283	3.2866	
-115.0000	-68.9582	20.1003	
-110.0000	-71.2338	-7.2656	
-105.0000	-68.8791	9.2291	
-100.0000	-68.1138	16.1699	
-95.0000	-70.4926	42.1323	
-90.0000	-70.3995	36.3909	
-85.0000	-68.3408	38.2695	
-80.0000	-68.2898	43.3347	
-75.0000	-68.2507	70.4819	
-70.0000	-70.6977	70.5002	
-65.0000	-67.6880	71.8796	
-60.0000	-68.5929	83.7651	
-55.0000	-68.2954	85.8138	
-50.0000	-69.1348	101.4898	
-45.0000	-67.2089	97.8684	
-40.0000	-68.6739	119.7453	
-35.0000	-66.4955	115.7533	
-30.0000	-67.8502	129.0943	
-25.0000	-65.4032	132.4491	
-20.0000	-66.2476	127.4085	
-15.0000	-67.0774	143.6353	
-10.0000	-65.7152	152.9725	
-5.0000	-64.3791	155.5258	
0.0000	-63.7232	158.0955	
5.0000	-63.2135	157.9666	
10.0000	-63.2980	157.4012	
15.0000	-63.8040	155.9832	
20.0000	-64.1392	147.4163	
25.0000	-62.9269	144.7628	
30.0000	-62.9981	151.2151	
35.0000	-63.7922	142.5023	
40.0000	-62.8033	143.9917	
45.0000	-63.4578	139.2737	
50.0000	-63.8841	137.9132	
55.0000	-63.0766	128.6940	
60.0000	-63.6383	126.5348	
65.0000	-64.4204	121.3416	
70.0000	-63.9259	120.6972	
75.0000	-62.8549	111.8623	
80.0000	-62.8823	98.4965	
85.0000	-64.6110	90.5491	
90.0000	-64.0875	87.8928	
95.0000	-63.0925	83.9037	
100.0000	-63.8211	73.3344	
105.0000	-65.7775	57.7033	
110.0000	-65.0586	70.1768	
115.0000	-63.0552	61.8218	
120.0000	-62.3078	45.1517	
125.0000	-63.3450	30.1893	
130.0000	-63.5469	32.6323	
135.0000	-63.4319	25.9058	
140.0000	-62.6781	23.4714	
145.0000	-63.3076	18.4976	
150.0000	-61.8695	15.1142	
155.0000	-63.4215	17.6560	
160.0000	-62.7614	4.5246	
165.0000	-63.2556	10.2204	
170.0000	-66.2480	-5.1190	
175.0000	-64.9668	-33.8437	
180.0000	-63.4309	-40.9470	
			
			
			
[Side Lobes Table]
			
No.	Rel Ampl	Azimuth  [deg]	Absolute Ampl
1L	-0.81	140.00	-62.68
2L	-0.44	120.00	-62.31
3L	-1.22	95.00	-63.09
1R	-0.89	160.00	-62.76
		 	
File Name:	uwb_dipole.rff		
			
Polarizat.	0.000	Phase	
Frequency	4.300 G	 [GHz]	
Roll  	160.000	[deg]	
Ch.	Channel1		
Beam			
Switch			
Dir	0.00	dBi	
Azimuth  [deg]	Amplitude (dB)	Phase [Deg]	
-180.0000	-63.5817	-41.1074	
-175.0000	-64.1830	-40.3128	
-170.0000	-68.5247	-23.0699	
-165.0000	-66.8227	15.7131	
-160.0000	-63.3161	1.0356	
-155.0000	-65.1377	0.8370	
-150.0000	-62.3542	5.7352	
-145.0000	-65.5628	-2.9898	
-140.0000	-65.3024	8.0354	
-135.0000	-66.5970	18.0738	
-130.0000	-66.5822	16.2168	
-125.0000	-66.8441	2.7424	
-120.0000	-68.4747	22.9412	
-115.0000	-69.2676	8.3559	
-110.0000	-68.4270	1.7181	
-105.0000	-67.3721	42.7023	
-100.0000	-70.3643	50.9996	
-95.0000	-71.1990	53.9057	
-90.0000	-69.8266	42.9737	
-85.0000	-68.3015	58.6730	
-80.0000	-70.1849	62.6238	
-75.0000	-70.1149	73.1256	
-70.0000	-69.5192	70.7085	
-65.0000	-66.9757	83.3766	
-60.0000	-69.7035	97.6128	
-55.0000	-68.0781	89.4869	
-50.0000	-68.9384	105.9796	
-45.0000	-67.0946	110.6426	
-40.0000	-68.6954	117.9164	
-35.0000	-65.7833	122.4601	
-30.0000	-67.7827	121.8655	
-25.0000	-65.4233	138.2285	
-20.0000	-65.1564	130.2074	
-15.0000	-66.5339	138.4945	
-10.0000	-65.6604	152.0288	
-5.0000	-64.4376	155.9804	
0.0000	-63.5800	156.6817	
5.0000	-63.0565	157.2418	
10.0000	-62.9817	156.8449	
15.0000	-63.2566	155.7426	
20.0000	-63.8869	148.9677	
25.0000	-63.1678	141.7265	
30.0000	-62.4006	145.3391	
35.0000	-63.8037	144.6954	
40.0000	-62.8609	138.5133	
45.0000	-63.5198	137.9646	
50.0000	-63.2577	132.6238	
55.0000	-63.4573	124.7405	
60.0000	-63.6148	126.1684	
65.0000	-63.5546	118.7567	
70.0000	-62.6876	110.2417	
75.0000	-63.6060	96.5570	
80.0000	-64.9728	95.9721	
85.0000	-64.2082	99.7985	
90.0000	-62.6282	89.5881	
95.0000	-62.4561	77.8174	
100.0000	-63.8918	76.4833	
105.0000	-63.6574	69.3032	
110.0000	-62.1890	64.0466	
115.0000	-61.7490	40.2880	
120.0000	-64.3824	33.0967	
125.0000	-64.0529	36.3304	
130.0000	-63.3157	33.8320	
135.0000	-62.9984	25.0799	
140.0000	-62.7159	21.7700	
145.0000	-63.0773	19.7904	
150.0000	-62.4055	9.9563	
155.0000	-62.2226	18.0433	
160.0000	-63.6417	4.1968	
165.0000	-62.4251	6.3586	
170.0000	-65.1255	5.8704	
175.0000	-66.1543	-26.0155	
180.0000	-63.5577	-41.5150	
			
			
			
[Side Lobes Table]
			
No.	Rel Ampl	Azimuth  [deg]	Absolute Ampl
1L	-0.71	95.00	-62.46
2L	-0.94	70.00	-62.69
3L	-1.51	50.00	-63.26
1R	-0.97	140.00	-62.72
2R	-0.47	155.00	-62.22
3R	-0.68	165.00	-62.43
		 	
File Name:	uwb_dipole.rff		
			
Polarizat.	0.000	Phase	
Frequency	4.300 G	 [GHz]	
Roll  	165.000	[deg]	
Ch.	Channel1		
Beam			
Switch			
Dir	0.00	dBi	
Azimuth  [deg]	Amplitude (dB)	Phase [Deg]	
-180.0000	-63.0280	-41.2137	
-175.0000	-65.2659	-34.8811	
-170.0000	-68.6754	-0.0421	
-165.0000	-63.9801	15.9289	
-160.0000	-63.3048	-1.0206	
-155.0000	-63.8137	12.1943	
-150.0000	-62.5905	-0.3383	
-145.0000	-65.1990	15.7884	
-140.0000	-65.8248	13.3956	
-135.0000	-64.8707	17.6640	
-130.0000	-66.0140	19.8725	
-125.0000	-68.8802	24.8890	
-120.0000	-66.1420	28.8402	
-115.0000	-69.2659	46.5820	
-110.0000	-72.4063	61.4021	
-105.0000	-69.2494	35.7436	
-100.0000	-67.4081	57.1375	
-95.0000	-68.6619	60.3805	
-90.0000	-69.9737	81.3493	
-85.0000	-70.4479	60.2283	
-80.0000	-68.1650	83.3730	
-75.0000	-68.5370	94.6411	
-70.0000	-68.1681	101.4146	
-65.0000	-68.8105	92.2916	
-60.0000	-66.8356	105.4949	
-55.0000	-68.9123	110.8299	
-50.0000	-67.1959	121.9724	
-45.0000	-67.0852	117.7852	
-40.0000	-66.4920	135.1662	
-35.0000	-65.8650	127.1039	
-30.0000	-66.4034	142.3256	
-25.0000	-64.2691	140.3179	
-20.0000	-65.1835	134.8730	
-15.0000	-65.9013	147.5652	
-10.0000	-64.6931	154.7113	
-5.0000	-63.5870	156.0750	
0.0000	-63.0912	157.0257	
5.0000	-62.6975	156.1436	
10.0000	-62.9595	155.7944	
15.0000	-63.3774	153.4310	
20.0000	-63.6966	143.8760	
25.0000	-62.5643	141.4740	
30.0000	-62.9054	147.2832	
35.0000	-63.7185	136.3941	
40.0000	-63.0270	137.7308	
45.0000	-63.6018	128.7095	
50.0000	-63.6727	130.5746	
55.0000	-63.0256	121.6123	
60.0000	-63.6377	116.9566	
65.0000	-64.0435	108.1256	
70.0000	-63.6548	113.8770	
75.0000	-62.6604	103.4273	
80.0000	-62.6482	88.3241	
85.0000	-63.9512	78.2234	
90.0000	-63.6276	80.7605	
95.0000	-63.1615	75.7292	
100.0000	-63.3389	61.2631	
105.0000	-64.7739	52.8099	
110.0000	-65.3367	59.0025	
115.0000	-62.9196	56.6711	
120.0000	-61.7458	37.9704	
125.0000	-63.5808	28.3398	
130.0000	-63.4920	23.4675	
135.0000	-62.9715	22.0436	
140.0000	-62.7430	19.9504	
145.0000	-63.6038	12.6227	
150.0000	-61.6751	10.4108	
155.0000	-63.5108	16.2380	
160.0000	-62.5306	-0.8012	
165.0000	-62.9138	9.5583	
170.0000	-66.7795	-6.5092	
175.0000	-64.7055	-37.5458	
180.0000	-63.0589	-41.7466	
			
			
			
[Side Lobes Table]
			
No.	Rel Ampl	Azimuth  [deg]	Absolute Ampl
1L	-1.07	140.00	-62.74
2L	-0.07	120.00	-61.75
3L	-1.49	95.00	-63.16
1R	-0.86	160.00	-62.53
		 	
File Name:	uwb_dipole.rff		
			
Polarizat.	0.000	Phase	
Frequency	4.300 G	 [GHz]	
Roll  	170.000	[deg]	
Ch.	Channel1		
Beam			
Switch			
Dir	0.00	dBi	
Azimuth  [deg]	Amplitude (dB)	Phase [Deg]	
-180.0000	-63.2401	-42.7625	
-175.0000	-63.7826	-38.8970	
-170.0000	-67.7527	-16.1730	
-165.0000	-65.1329	20.7002	
-160.0000	-62.5381	7.3326	
-155.0000	-64.3656	5.4130	
-150.0000	-62.1147	8.8671	
-145.0000	-64.8002	6.4463	
-140.0000	-64.2026	12.2195	
-135.0000	-64.3742	27.8348	
-130.0000	-66.0330	23.8952	
-125.0000	-66.8195	27.7036	
-120.0000	-66.2998	43.8309	
-115.0000	-70.9758	43.2784	
-110.0000	-67.4740	47.3170	
-105.0000	-65.5863	64.8683	
-100.0000	-66.0907	81.9927	
-95.0000	-69.4908	76.8263	
-90.0000	-68.5212	82.8492	
-85.0000	-68.2158	81.7294	
-80.0000	-67.2551	102.1589	
-75.0000	-69.0276	104.8261	
-70.0000	-66.9184	101.6238	
-65.0000	-66.9373	107.5468	
-60.0000	-66.9932	116.8333	
-55.0000	-67.8808	116.6669	
-50.0000	-66.5383	125.4956	
-45.0000	-66.2696	127.9858	
-40.0000	-66.5803	135.6090	
-35.0000	-64.9921	133.9225	
-30.0000	-66.4250	139.1615	
-25.0000	-64.1415	145.9223	
-20.0000	-64.2181	137.0740	
-15.0000	-65.5226	143.7196	
-10.0000	-64.7991	155.3925	
-5.0000	-63.5559	157.2452	
0.0000	-63.0767	156.5689	
5.0000	-62.7708	155.7449	
10.0000	-62.7795	155.6116	
15.0000	-63.2183	154.7599	
20.0000	-63.8780	147.4682	
25.0000	-63.2747	138.6740	
30.0000	-62.6378	142.0198	
35.0000	-64.3868	137.6563	
40.0000	-63.1354	129.9953	
45.0000	-63.8977	129.0126	
50.0000	-63.2210	126.8889	
55.0000	-64.1416	116.6339	
60.0000	-64.1030	116.2706	
65.0000	-63.6212	110.8719	
70.0000	-62.7192	103.2024	
75.0000	-63.6449	86.3783	
80.0000	-65.1902	84.4883	
85.0000	-64.2084	89.7049	
90.0000	-62.9805	84.3786	
95.0000	-63.2432	67.9857	
100.0000	-63.5646	67.8474	
105.0000	-64.0435	64.1559	
110.0000	-62.2956	55.2843	
115.0000	-61.4164	36.6499	
120.0000	-64.0943	25.7210	
125.0000	-64.8529	31.9782	
130.0000	-63.5105	26.8352	
135.0000	-62.9269	19.3199	
140.0000	-63.1756	19.1514	
145.0000	-63.8202	12.6672	
150.0000	-62.3106	3.0186	
155.0000	-62.8838	16.0010	
160.0000	-63.5706	-4.6077	
165.0000	-61.8657	3.2248	
170.0000	-65.6969	6.0083	
175.0000	-66.2299	-32.0481	
180.0000	-63.2440	-42.7320	
			
			
			
[Side Lobes Table]
			
No.	Rel Ampl	Azimuth  [deg]	Absolute Ampl
1L	-1.56	90.00	-62.98
2L	-1.30	70.00	-62.72
3L	-1.80	50.00	-63.22
1R	-1.51	135.00	-62.93
2R	-0.89	150.00	-62.31
3R	-0.45	165.00	-61.87
		 	
File Name:	uwb_dipole.rff		
			
Polarizat.	0.000	Phase	
Frequency	4.300 G	 [GHz]	
Roll  	175.000	[deg]	
Ch.	Channel1		
Beam			
Switch			
Dir	0.00	dBi	
Azimuth  [deg]	Amplitude (dB)	Phase [Deg]	
-180.0000	-62.9001	-41.7350	
-175.0000	-64.9460	-34.4070	
-170.0000	-67.4388	3.5116	
-165.0000	-62.9292	18.9334	
-160.0000	-62.7183	4.0126	
-155.0000	-63.5754	16.0928	
-150.0000	-62.5276	3.6203	
-145.0000	-64.5321	19.4495	
-140.0000	-65.2128	22.5828	
-135.0000	-63.9215	20.8211	
-130.0000	-65.9704	34.4641	
-125.0000	-66.9167	47.2355	
-120.0000	-65.8427	44.6686	
-115.0000	-66.0040	80.7205	
-110.0000	-67.7215	75.5877	
-105.0000	-67.6465	69.6524	
-100.0000	-65.5020	69.5917	
-95.0000	-65.7849	90.1322	
-90.0000	-66.9596	98.8552	
-85.0000	-67.4741	104.5044	
-80.0000	-66.3309	101.3843	
-75.0000	-65.0655	118.1069	
-70.0000	-67.2541	117.4244	
-65.0000	-66.3197	120.7745	
-60.0000	-66.0298	122.1568	
-55.0000	-66.2384	132.8656	
-50.0000	-65.9184	134.6182	
-45.0000	-65.4890	134.5321	
-40.0000	-65.1226	144.8625	
-35.0000	-64.9967	139.6960	
-30.0000	-64.7661	150.6906	
-25.0000	-63.4049	145.0997	
-20.0000	-64.5538	140.2544	
-15.0000	-65.1598	152.2076	
-10.0000	-63.9817	157.5201	
-5.0000	-63.0870	156.2659	
0.0000	-62.8347	155.5069	
5.0000	-62.6908	154.7212	
10.0000	-63.0374	153.5700	
15.0000	-63.7558	150.9972	
20.0000	-64.1600	141.4825	
25.0000	-63.2009	135.8750	
30.0000	-63.7776	139.0193	
35.0000	-64.0116	125.6325	
40.0000	-63.3648	130.3169	
45.0000	-64.1890	120.4092	
50.0000	-64.5126	122.5558	
55.0000	-63.7054	109.8940	
60.0000	-64.0297	107.0294	
65.0000	-64.9928	100.8106	
70.0000	-65.0015	103.2548	
75.0000	-63.0694	93.7526	
80.0000	-63.2288	78.4054	
85.0000	-64.7663	70.8756	
90.0000	-65.3183	68.1746	
95.0000	-63.2878	67.1019	
100.0000	-64.1759	53.5639	
105.0000	-65.2814	44.3604	
110.0000	-66.1009	48.5438	
115.0000	-63.3800	55.9173	
120.0000	-62.7660	28.5847	
125.0000	-63.7754	19.4141	
130.0000	-64.1900	17.4381	
135.0000	-63.7419	19.3070	
140.0000	-63.9879	10.2630	
145.0000	-63.4636	3.9674	
150.0000	-62.2265	6.3155	
155.0000	-64.4679	3.8732	
160.0000	-61.9623	-6.1124	
165.0000	-62.7936	9.5530	
170.0000	-67.6283	-9.0471	
175.0000	-64.7588	-41.4957	
180.0000	-62.9751	-42.2625	
			
			
			
[Side Lobes Table]
			
No.	Rel Ampl	Azimuth  [deg]	Absolute Ampl
1L	-0.26	150.00	-62.23
2L	-1.78	135.00	-63.74
3L	-0.80	120.00	-62.77
		 	
File Name:	uwb_dipole.rff		
			
Polarizat.	0.000	Phase	
Frequency	4.300 G	 [GHz]	
Roll  	180.000	[deg]	
Ch.	Channel1		
Beam			
Switch			
Dir	0.00	dBi	
Azimuth  [deg]	Amplitude (dB)	Phase [Deg]	
-180.0000	-63.1614	-43.7316	
-175.0000	-63.7265	-38.0969	
-170.0000	-66.8775	-16.8551	
-165.0000	-64.1647	21.5063	
-160.0000	-61.8537	11.4052	
-155.0000	-63.6129	12.7029	
-150.0000	-61.9654	13.0902	
-145.0000	-65.1288	14.7012	
-140.0000	-64.0771	21.8695	
-135.0000	-63.5797	32.4038	
-130.0000	-67.0487	37.7001	
-125.0000	-65.2943	48.7598	
-120.0000	-64.9620	58.6819	
-115.0000	-66.1567	78.6430	
-110.0000	-64.8043	58.5364	
-105.0000	-63.6396	80.0068	
-100.0000	-63.5977	87.4967	
-95.0000	-65.8000	102.6681	
-90.0000	-65.8170	95.4656	
-85.0000	-65.0797	107.0579	
-80.0000	-64.3377	112.7020	
-75.0000	-65.4706	120.9920	
-70.0000	-66.0250	115.2931	
-65.0000	-64.3427	126.3248	
-60.0000	-65.6114	130.0079	
-55.0000	-65.2586	135.3542	
-50.0000	-65.0117	138.7167	
-45.0000	-64.5788	141.7541	
-40.0000	-64.8628	144.5809	
-35.0000	-64.0445	144.1575	
-30.0000	-64.8436	149.1580	
-25.0000	-63.2034	150.0298	
-20.0000	-63.7888	142.0009	
-15.0000	-64.8952	148.8726	
-10.0000	-64.1644	158.1849	
-5.0000	-63.0737	157.6169	
0.0000	-62.8255	155.5654	
5.0000	-62.7565	153.9642	
10.0000	-63.0407	153.1787	
15.0000	-63.7855	151.9224	
20.0000	-64.7902	142.6295	
25.0000	-64.1957	131.6551	
30.0000	-63.5089	131.8140	
35.0000	-64.6581	126.2716	
40.0000	-63.4931	123.2414	
45.0000	-65.1158	121.2991	
50.0000	-64.2151	114.8879	
55.0000	-64.9838	104.5962	
60.0000	-65.0627	107.0480	
65.0000	-65.4006	103.3090	
70.0000	-63.9771	91.9154	
75.0000	-64.7183	73.6309	
80.0000	-66.4587	72.7904	
85.0000	-66.6936	80.3468	
90.0000	-64.7942	70.9073	
95.0000	-64.0885	62.5793	
100.0000	-65.8906	56.1887	
105.0000	-65.3660	57.2290	
110.0000	-63.3544	48.1150	
115.0000	-62.9627	29.8347	
120.0000	-65.2064	9.6773	
125.0000	-65.5413	25.3550	
130.0000	-64.7075	23.5037	
135.0000	-64.4093	14.9572	
140.0000	-64.8194	4.4175	
145.0000	-63.6720	6.8555	
150.0000	-63.3203	0.4787	
155.0000	-63.7584	5.0270	
160.0000	-62.9206	-10.5538	
165.0000	-61.8982	4.5692	
170.0000	-66.4037	9.4124	
175.0000	-66.3306	-37.6072	
180.0000	-63.2723	-43.8116	
			
			
			
[Side Lobes Table]
			
No.	Rel Ampl	Azimuth  [deg]	Absolute Ampl
1R	-0.11	-150.00	-61.97
2R	-1.73	-135.00	-63.58
3R	-3.11	-120.00	-64.96
		 	



[Statistics Table]
		Polarizat.	Freq.	Roll  	Ch.	Beam	Switch	Beam Peak [dB]		 	Beam Width [deg]		 	Null Depth [dB]		 				
File Name		[deg]	 [GHz]	[deg]				Value	[deg]		Value	At dB		Value	[deg]				 	 
uwb_dipole.rff		0.000	4.300 G	0.000	Channel1			-62.00	165.00	P	N/A	3.00	P				0.00			
uwb_dipole.rff		0.000	4.300 G	5.000	Channel1			-61.56	160.00	P	N/A	3.00	P				0.00			
uwb_dipole.rff		0.000	4.300 G	10.000	Channel1			-61.89	165.00	P	N/A	3.00	P				0.00			
uwb_dipole.rff		0.000	4.300 G	15.000	Channel1			-62.10	115.00	P	N/A	3.00	P				0.00			
uwb_dipole.rff		0.000	4.300 G	20.000	Channel1			-62.14	30.00	P	N/A	3.00	P				0.00			
uwb_dipole.rff		0.000	4.300 G	25.000	Channel1			-62.39	120.00	P	N/A	3.00	P				0.00			
uwb_dipole.rff		0.000	4.300 G	30.000	Channel1			-62.43	30.00	P	123.35	3.00	P				0.00			
uwb_dipole.rff		0.000	4.300 G	35.000	Channel1			-62.88	40.00	P	109.05	3.00	P				0.00			
uwb_dipole.rff		0.000	4.300 G	40.000	Channel1			-63.33	30.00	P	102.76	3.00	P				0.00			
uwb_dipole.rff		0.000	4.300 G	45.000	Channel1			-64.07	40.00	P	95.17	3.00	P				0.00			
uwb_dipole.rff		0.000	4.300 G	50.000	Channel1			-64.69	30.00	P	77.28	3.00	P				0.00			
uwb_dipole.rff		0.000	4.300 G	55.000	Channel1			-65.59	40.00	P	104.76	3.00	P				0.00			
uwb_dipole.rff		0.000	4.300 G	60.000	Channel1			-66.29	30.00	P	75.18	3.00	P				0.00			
uwb_dipole.rff		0.000	4.300 G	65.000	Channel1			-67.85	25.00	P	104.48	3.00	P				0.00			
uwb_dipole.rff		0.000	4.300 G	70.000	Channel1			-68.97	30.00	P	64.85	3.00	P				0.00			
uwb_dipole.rff		0.000	4.300 G	75.000	Channel1			-71.11	25.00	P	64.73	3.00	P				0.00			
uwb_dipole.rff		0.000	4.300 G	80.000	Channel1			-72.66	30.00	P	10.26	3.00	P				0.00			
uwb_dipole.rff		0.000	4.300 G	85.000	Channel1			-75.84	-95.00	P	12.14	3.00	P				0.00			
uwb_dipole.rff		0.000	4.300 G	90.000	Channel1			-78.71	-155.00	P	10.15	3.00	P				0.00			
uwb_dipole.rff		0.000	4.300 G	95.000	Channel1			-75.04	-120.00	P	6.57	3.00	P				0.00			
uwb_dipole.rff		0.000	4.300 G	100.000	Channel1			-71.88	165.00	P	22.19	3.00	P				0.00			
uwb_dipole.rff		0.000	4.300 G	105.000	Channel1			-68.43	-120.00	P	14.66	3.00	P				0.00			
uwb_dipole.rff		0.000	4.300 G	110.000	Channel1			-67.98	-120.00	P	29.35	3.00	P				0.00			
uwb_dipole.rff		0.000	4.300 G	115.000	Channel1			-66.74	-120.00	P	16.39	3.00	P				0.00			
uwb_dipole.rff		0.000	4.300 G	120.000	Channel1			-65.60	165.00	P	36.51	3.00	P				0.00			
uwb_dipole.rff		0.000	4.300 G	125.000	Channel1			-65.07	160.00	P	N/A	3.00	P				0.00			
uwb_dipole.rff		0.000	4.300 G	130.000	Channel1			-63.91	165.00	P	42.68	3.00	P				0.00			
uwb_dipole.rff		0.000	4.300 G	135.000	Channel1			-63.73	160.00	P	57.66	3.00	P				0.00			
uwb_dipole.rff		0.000	4.300 G	140.000	Channel1			-63.00	165.00	P	44.55	3.00	P				0.00			
uwb_dipole.rff		0.000	4.300 G	145.000	Channel1			-62.60	150.00	P	57.18	3.00	P				0.00			
uwb_dipole.rff		0.000	4.300 G	150.000	Channel1			-62.63	155.00	P	177.79	3.00	P				0.00			
uwb_dipole.rff		0.000	4.300 G	155.000	Channel1			-61.87	150.00	P	57.22	3.00	P				0.00			
uwb_dipole.rff		0.000	4.300 G	160.000	Channel1			-61.75	115.00	P	87.84	3.00	P				0.00			
uwb_dipole.rff		0.000	4.300 G	165.000	Channel1			-61.68	150.00	P	55.91	3.00	P				0.00			
uwb_dipole.rff		0.000	4.300 G	170.000	Channel1			-61.42	115.00	P	38.18	3.00	P				0.00			
uwb_dipole.rff		0.000	4.300 G	175.000	Channel1			-61.96	160.00	P	55.15	3.00	P				0.00			
uwb_dipole.rff		0.000	4.300 G	180.000	Channel1			-61.85	-160.00	P	20.84	3.00	P				0.00			



[Database Table]
First Question	
2nd	
3rd	
4th	
