File Name:	UWB_patch_stairs_V2.rff		
			
		Phase	
Frequency	3.000 G	 [GHz]	
Polarizat.	0.00000	[deg]	
Roll	0.00000	[deg]
Ch.	Channel1		
Beam			
Switch			
Dir	0.00	dBi	
Azimuth  [deg]	Amplitude (dB)	Phase [Deg]	
-180.0000	-59.0092	143.1705	
-175.0000	-60.1562	144.4203	
-170.0000	-62.8688	152.9381	
-165.0000	-63.4629	-179.0802	
-160.0000	-59.7784	-169.8213	
-155.0000	-58.4755	179.1534	
-150.0000	-59.4682	170.8486	
-145.0000	-60.6850	173.7250	
-140.0000	-61.4017	179.3405	
-135.0000	-61.9478	-174.6009	
-130.0000	-62.5970	-176.0865	
-125.0000	-68.1093	-170.4627	
-120.0000	-66.9638	-123.3204	
-115.0000	-63.5952	-119.0020	
-110.0000	-65.3823	-115.0591	
-105.0000	-62.3900	-107.8448	
-100.0000	-63.4874	-109.3061	
-95.0000	-64.7507	-123.0782	
-90.0000	-68.0064	-92.8809	
-85.0000	-67.2276	-79.1743	
-80.0000	-66.8444	-71.8365	
-75.0000	-64.5175	-55.3209	
-70.0000	-64.2502	-75.0587	
-65.0000	-66.1554	-52.8219	
-60.0000	-65.4693	-66.9766	
-55.0000	-67.8653	-36.2970	
-50.0000	-64.3758	-43.7409	
-45.0000	-66.4307	-32.2977	
-40.0000	-63.5627	-28.4009	
-35.0000	-64.5523	-37.0052	
-30.0000	-65.7154	-25.2381	
-25.0000	-64.5022	-20.7689	
-20.0000	-64.3931	-22.8611	
-15.0000	-65.0403	-22.0896	
-10.0000	-65.3413	-17.7693	
-5.0000	-65.1844	-14.6907	
0.0000	-65.0654	-12.0875	
5.0000	-65.0938	-14.5371	
10.0000	-65.1245	-19.5466	
15.0000	-64.7064	-24.1866	
20.0000	-64.6256	-26.3934	
25.0000	-64.5961	-28.8782	
30.0000	-64.8722	-33.7738	
35.0000	-64.8588	-40.2651	
40.0000	-64.4193	-46.4593	
45.0000	-63.8432	-49.8553	
50.0000	-64.1539	-49.2600	
55.0000	-66.0550	-59.8600	
60.0000	-63.7046	-73.1936	
65.0000	-64.5668	-62.3895	
70.0000	-64.3901	-79.0852	
75.0000	-66.2078	-87.5040	
80.0000	-62.4563	-96.0723	
85.0000	-65.7893	-100.4601	
90.0000	-64.5953	-113.8181	
95.0000	-62.4393	-114.7382	
100.0000	-66.5251	-133.6889	
105.0000	-62.3452	-134.0555	
110.0000	-62.3849	-146.6137	
115.0000	-63.9890	-142.6882	
120.0000	-62.5030	-156.2421	
125.0000	-63.7628	-173.7436	
130.0000	-62.1771	-172.2056	
135.0000	-61.9165	170.4495	
140.0000	-61.3935	177.6801	
145.0000	-62.1778	157.2000	
150.0000	-59.3391	159.5281	
155.0000	-60.0658	173.1171	
160.0000	-62.8593	168.1479	
165.0000	-62.7663	146.1615	
170.0000	-60.1568	139.5960	
175.0000	-58.9841	141.8813	
180.0000	-59.0025	143.1817	
			
			
			
[Side Lobes Table]
			
No.	Rel Ampl	Azimuth  [deg]	Absolute Ampl
1R	-5.12	-115.00	-63.60
2R	-3.91	-105.00	-62.39
3R	-5.77	-70.00	-64.25
		 	
File Name:	UWB_patch_stairs_V2.rff		
			
		Phase	
Frequency	3.400 G	 [GHz]	
Polarizat.	0.00000	[deg]	
Roll	0.00000	[deg]
Ch.	Channel1		
Beam			
Switch			
Dir	0.00	dBi	
Azimuth  [deg]	Amplitude (dB)	Phase [Deg]	
-180.0000	-62.1634	91.3882	
-175.0000	-63.3099	93.3986	
-170.0000	-65.5481	112.0295	
-165.0000	-63.9981	135.7360	
-160.0000	-61.5825	133.4484	
-155.0000	-61.8072	126.5237	
-150.0000	-63.1677	125.9764	
-145.0000	-64.5289	135.8262	
-140.0000	-63.9536	143.9162	
-135.0000	-65.1957	147.3592	
-130.0000	-67.5541	142.7953	
-125.0000	-68.5968	-151.6219	
-120.0000	-65.2924	-166.8204	
-115.0000	-66.6543	-153.9843	
-110.0000	-65.5131	-154.7738	
-105.0000	-64.3680	-153.4624	
-100.0000	-73.0071	-154.6510	
-95.0000	-68.6436	-125.5116	
-90.0000	-68.7755	-111.0679	
-85.0000	-68.3747	-94.6452	
-80.0000	-66.0438	-119.2213	
-75.0000	-68.1563	-91.4044	
-70.0000	-69.5295	-105.9970	
-65.0000	-68.5062	-83.6306	
-60.0000	-68.5915	-73.9001	
-55.0000	-67.3287	-75.1201	
-50.0000	-66.7583	-74.5834	
-45.0000	-68.5167	-76.5334	
-40.0000	-66.9017	-57.8283	
-35.0000	-66.7194	-62.6777	
-30.0000	-67.0788	-48.0943	
-25.0000	-64.9215	-46.2887	
-20.0000	-64.9971	-53.5981	
-15.0000	-66.4872	-51.6488	
-10.0000	-66.9585	-41.5934	
-5.0000	-66.5172	-33.7399	
0.0000	-66.4025	-34.3414	
5.0000	-66.8839	-39.1937	
10.0000	-67.5878	-51.8848	
15.0000	-66.3940	-66.1259	
20.0000	-64.4432	-66.8581	
25.0000	-64.8532	-57.1210	
30.0000	-66.8757	-59.6559	
35.0000	-66.6255	-76.2384	
40.0000	-66.9579	-75.6712	
45.0000	-66.1439	-92.4429	
50.0000	-66.4489	-78.3083	
55.0000	-69.4720	-107.5543	
60.0000	-65.3892	-101.3775	
65.0000	-67.3018	-104.2376	
70.0000	-67.5884	-112.6432	
75.0000	-65.8453	-121.7716	
80.0000	-66.3969	-125.5495	
85.0000	-68.0313	-146.4604	
90.0000	-65.1829	-133.2087	
95.0000	-65.8976	-153.8302	
100.0000	-65.2877	-177.0749	
105.0000	-66.9581	-146.8972	
110.0000	-63.5509	-176.6051	
115.0000	-65.6146	161.9372	
120.0000	-65.0393	164.9471	
125.0000	-64.0420	163.6817	
130.0000	-64.8263	139.8166	
135.0000	-64.9570	144.1554	
140.0000	-63.7960	123.2642	
145.0000	-63.8247	121.2141	
150.0000	-61.5869	110.1912	
155.0000	-60.0714	123.4785	
160.0000	-62.0564	139.5868	
165.0000	-66.1426	131.7757	
170.0000	-65.6994	97.6909	
175.0000	-63.0839	90.8095	
180.0000	-62.1804	91.1336	
			
			
			
[Side Lobes Table]
			
No.	Rel Ampl	Azimuth  [deg]	Absolute Ampl
1L	-3.72	140.00	-63.80
2L	-3.97	125.00	-64.04
3L	-3.48	110.00	-63.55
		 	
File Name:	UWB_patch_stairs_V2.rff		
			
		Phase	
Frequency	3.700 G	 [GHz]	
Polarizat.	0.00000	[deg]	
Roll	0.00000	[deg]
Ch.	Channel1		
Beam			
Switch			
Dir	0.00	dBi	
Azimuth  [deg]	Amplitude (dB)	Phase [Deg]	
-180.0000	-62.9847	-118.3718	
-175.0000	-64.6837	-120.8982	
-170.0000	-69.1075	-103.7743	
-165.0000	-66.3034	-64.2067	
-160.0000	-63.1236	-73.8727	
-155.0000	-64.6973	-79.5017	
-150.0000	-64.6188	-68.5612	
-145.0000	-65.1339	-70.6085	
-140.0000	-66.9196	-61.6581	
-135.0000	-66.7906	-60.8471	
-130.0000	-74.5051	-19.3424	
-125.0000	-67.4790	-17.3659	
-120.0000	-67.6904	-4.7926	
-115.0000	-68.7653	1.1840	
-110.0000	-66.6992	1.2790	
-105.0000	-74.4596	-7.1137	
-100.0000	-71.7490	26.2732	
-95.0000	-71.1767	37.9501	
-90.0000	-69.6861	64.4836	
-85.0000	-72.0350	40.5611	
-80.0000	-70.2107	47.0689	
-75.0000	-71.9388	69.3411	
-70.0000	-72.6869	71.2284	
-65.0000	-70.9761	85.1818	
-60.0000	-68.8721	72.3498	
-55.0000	-70.5833	92.3825	
-50.0000	-69.0057	69.0060	
-45.0000	-70.8438	107.8257	
-40.0000	-67.7870	91.2964	
-35.0000	-69.8048	111.0334	
-30.0000	-66.0164	113.8163	
-25.0000	-66.0468	101.5047	
-20.0000	-67.4821	104.5866	
-15.0000	-67.8099	113.5019	
-10.0000	-67.6378	119.5870	
-5.0000	-67.6079	122.5962	
0.0000	-67.8990	120.8437	
5.0000	-67.8059	115.1637	
10.0000	-67.0646	107.3599	
15.0000	-66.4084	106.1143	
20.0000	-66.3571	103.7296	
25.0000	-66.5218	103.5286	
30.0000	-67.4319	105.0409	
35.0000	-69.3253	83.4898	
40.0000	-66.2178	82.1241	
45.0000	-69.5328	93.0072	
50.0000	-67.8975	67.8284	
55.0000	-70.6556	68.1291	
60.0000	-66.6790	70.9658	
65.0000	-72.6922	40.4646	
70.0000	-67.8179	58.2582	
75.0000	-68.8351	50.8097	
80.0000	-69.4931	28.7402	
85.0000	-68.9597	29.1717	
90.0000	-70.7096	22.4417	
95.0000	-66.4837	14.3127	
100.0000	-67.9404	2.4097	
105.0000	-67.3370	-24.0487	
110.0000	-70.5963	-13.4359	
115.0000	-66.1463	-21.8152	
120.0000	-66.8020	-45.5121	
125.0000	-66.4138	-50.8980	
130.0000	-66.8280	-56.6326	
135.0000	-65.0445	-63.7799	
140.0000	-67.3350	-73.0896	
145.0000	-65.4946	-83.4478	
150.0000	-65.4090	-99.4652	
155.0000	-61.8745	-99.2804	
160.0000	-61.9788	-79.8047	
165.0000	-65.4952	-79.0392	
170.0000	-66.0457	-107.2834	
175.0000	-63.5804	-117.0883	
180.0000	-63.0036	-118.4865	
			
			
			
[Side Lobes Table]
			
No.	Rel Ampl	Azimuth  [deg]	Absolute Ampl
1L	-3.17	135.00	-65.04
2L	-4.54	125.00	-66.41
3L	-4.27	115.00	-66.15
		 	
File Name:	UWB_patch_stairs_V2.rff		
			
		Phase	
Frequency	4.000 G	 [GHz]	
Polarizat.	0.00000	[deg]	
Roll	0.00000	[deg]
Ch.	Channel1		
Beam			
Switch			
Dir	0.00	dBi	
Azimuth  [deg]	Amplitude (dB)	Phase [Deg]	
-180.0000	-64.6232	34.4562	
-175.0000	-67.3297	36.9959	
-170.0000	-69.8963	77.6650	
-165.0000	-65.1510	90.7855	
-160.0000	-64.6068	77.0185	
-155.0000	-65.9693	84.7668	
-150.0000	-65.3144	79.6423	
-145.0000	-68.4687	88.0917	
-140.0000	-68.4358	91.6436	
-135.0000	-73.0337	103.2266	
-130.0000	-71.3483	147.8279	
-125.0000	-69.3945	148.4767	
-120.0000	-71.3606	164.2643	
-115.0000	-70.1470	164.9985	
-110.0000	-73.3304	140.6269	
-105.0000	-72.3592	-162.4661	
-100.0000	-74.5882	-150.8959	
-95.0000	-72.8347	-139.2544	
-90.0000	-71.7786	-153.7717	
-85.0000	-73.3162	-138.5652	
-80.0000	-76.4712	-135.2891	
-75.0000	-74.2166	-129.4547	
-70.0000	-71.0215	-113.8546	
-65.0000	-74.3852	-118.0601	
-60.0000	-70.6973	-127.6573	
-55.0000	-73.0204	-106.2700	
-50.0000	-70.7251	-104.9806	
-45.0000	-70.0023	-106.6758	
-40.0000	-70.2788	-93.4842	
-35.0000	-67.8298	-93.1470	
-30.0000	-67.9927	-94.5376	
-25.0000	-67.8059	-88.1363	
-20.0000	-67.9189	-83.0464	
-15.0000	-67.4783	-70.7971	
-10.0000	-65.5135	-64.1990	
-5.0000	-64.4931	-65.0397	
0.0000	-64.2454	-65.5925	
5.0000	-64.6773	-65.1620	
10.0000	-66.1669	-64.6620	
15.0000	-68.5334	-79.0505	
20.0000	-68.1030	-97.3727	
25.0000	-67.2194	-96.0325	
30.0000	-68.8033	-104.3463	
35.0000	-67.1509	-111.2065	
40.0000	-69.1966	-105.0504	
45.0000	-69.5014	-121.1006	
50.0000	-70.1693	-124.9301	
55.0000	-69.4781	-128.8167	
60.0000	-71.4258	-128.3716	
65.0000	-69.9787	-155.0125	
70.0000	-71.1196	-127.6516	
75.0000	-69.1205	-159.2288	
80.0000	-69.7517	-167.9368	
85.0000	-73.1168	177.6698	
90.0000	-70.4134	-171.0371	
95.0000	-70.3554	170.8283	
100.0000	-68.4537	162.4959	
105.0000	-69.6471	159.7061	
110.0000	-67.0053	142.9290	
115.0000	-68.3955	113.8793	
120.0000	-70.0592	122.2620	
125.0000	-67.6870	114.3261	
130.0000	-67.1500	100.5821	
135.0000	-67.2549	80.6863	
140.0000	-66.3759	89.9867	
145.0000	-67.0429	72.6344	
150.0000	-67.4379	67.0027	
155.0000	-64.8799	49.8070	
160.0000	-63.2992	64.9548	
165.0000	-65.9061	69.2137	
170.0000	-66.4925	46.6857	
175.0000	-64.5353	36.0244	
180.0000	-64.6569	34.6850	
			
			
			
[Side Lobes Table]
			
No.	Rel Ampl	Azimuth  [deg]	Absolute Ampl
1L	-3.08	140.00	-66.38
2L	-3.85	130.00	-67.15
3L	-3.71	110.00	-67.01
1R	-1.24	175.00	-64.54
		 	
File Name:	UWB_patch_stairs_V2.rff		
			
		Phase	
Frequency	4.300 G	 [GHz]	
Polarizat.	0.00000	[deg]	
Roll	0.00000	[deg]
Ch.	Channel1		
Beam			
Switch			
Dir	0.00	dBi	
Azimuth  [deg]	Amplitude (dB)	Phase [Deg]	
-180.0000	-64.5438	-179.3654	
-175.0000	-67.3486	-172.7746	
-170.0000	-69.2568	-131.3590	
-165.0000	-65.0361	-123.6278	
-160.0000	-65.8612	-138.5324	
-155.0000	-66.3852	-125.5298	
-150.0000	-67.4523	-141.2798	
-145.0000	-70.3174	-110.3687	
-140.0000	-73.0369	-110.5327	
-135.0000	-73.8841	-82.9849	
-130.0000	-70.1806	-50.6662	
-125.0000	-72.7321	-50.4209	
-120.0000	-72.2099	-38.5413	
-115.0000	-70.3266	-41.8902	
-110.0000	-72.8149	11.1817	
-105.0000	-77.0215	24.9633	
-100.0000	-77.8301	21.0479	
-95.0000	-72.5001	6.3077	
-90.0000	-73.4150	28.5357	
-85.0000	-75.4751	51.9634	
-80.0000	-78.4938	61.9888	
-75.0000	-73.3703	39.9208	
-70.0000	-73.2940	51.8543	
-65.0000	-74.6140	58.8263	
-60.0000	-74.3119	57.8327	
-55.0000	-72.1948	60.3340	
-50.0000	-70.3074	66.8328	
-45.0000	-71.8597	66.2940	
-40.0000	-68.7064	76.5750	
-35.0000	-68.9059	77.5117	
-30.0000	-67.2275	79.9043	
-25.0000	-67.2529	76.7567	
-20.0000	-67.3414	86.0089	
-15.0000	-66.3839	91.9281	
-10.0000	-65.5522	93.2730	
-5.0000	-65.1067	91.7561	
0.0000	-64.8929	89.9462	
5.0000	-64.9526	88.1435	
10.0000	-65.2961	85.4038	
15.0000	-66.0095	82.4708	
20.0000	-67.0424	75.2968	
25.0000	-66.7876	66.1068	
30.0000	-66.6137	70.0330	
35.0000	-68.5753	59.9427	
40.0000	-68.9668	56.0759	
45.0000	-69.4208	35.2383	
50.0000	-68.5896	46.8499	
55.0000	-70.6698	32.7235	
60.0000	-70.3185	18.5959	
65.0000	-71.4883	22.3560	
70.0000	-74.1499	14.3729	
75.0000	-69.1878	18.4972	
80.0000	-70.2306	-14.0967	
85.0000	-71.4632	-25.9185	
90.0000	-74.4146	-41.2875	
95.0000	-70.2434	-19.5399	
100.0000	-70.3140	-45.0774	
105.0000	-70.2555	-63.1660	
110.0000	-73.3292	-67.9610	
115.0000	-70.7512	-61.8050	
120.0000	-67.0329	-83.5077	
125.0000	-67.4742	-109.7103	
130.0000	-68.9004	-115.7662	
135.0000	-69.6991	-114.7034	
140.0000	-66.2509	-130.2070	
145.0000	-67.8712	-139.8971	
150.0000	-66.6054	-131.7068	
155.0000	-68.2853	-158.3584	
160.0000	-64.4651	-154.1223	
165.0000	-66.8245	-147.1807	
170.0000	-67.2387	-174.2470	
175.0000	-64.5083	178.1681	
180.0000	-64.4968	-179.9615	
			
			
			
[Side Lobes Table]
			
No.	Rel Ampl	Azimuth  [deg]	Absolute Ampl
1L	-2.14	150.00	-66.61
2L	-1.79	140.00	-66.25
3L	-2.57	120.00	-67.03
		 	
File Name:	UWB_patch_stairs_V2.rff		
			
		Phase	
Frequency	4.500 G	 [GHz]	
Polarizat.	0.00000	[deg]	
Roll	0.00000	[deg]
Ch.	Channel1		
Beam			
Switch			
Dir	0.00	dBi	
Azimuth  [deg]	Amplitude (dB)	Phase [Deg]	
-180.0000	-63.3962	155.3786	
-175.0000	-66.1754	163.0696	
-170.0000	-67.8001	-157.7035	
-165.0000	-64.2481	-150.1216	
-160.0000	-65.0347	-159.1202	
-155.0000	-65.3018	-151.6690	
-150.0000	-68.9084	-155.6284	
-145.0000	-68.8458	-132.5837	
-140.0000	-71.1725	-110.9803	
-135.0000	-74.5559	-98.7640	
-130.0000	-67.8091	-80.9760	
-125.0000	-70.6009	-51.7599	
-120.0000	-71.8873	-46.5312	
-115.0000	-75.1996	-83.1435	
-110.0000	-72.1373	-42.1714	
-105.0000	-71.6655	-7.6803	
-100.0000	-70.0123	17.2714	
-95.0000	-76.5587	21.0299	
-90.0000	-76.8091	1.4539	
-85.0000	-74.5224	28.1552	
-80.0000	-72.8945	46.0249	
-75.0000	-74.2661	38.8421	
-70.0000	-73.7285	28.2467	
-65.0000	-72.4704	50.0863	
-60.0000	-73.6672	48.1619	
-55.0000	-68.8089	49.1568	
-50.0000	-70.9015	62.1079	
-45.0000	-68.2392	53.1921	
-40.0000	-68.5731	62.9526	
-35.0000	-67.8037	71.1743	
-30.0000	-65.4321	76.4404	
-25.0000	-64.7134	66.0172	
-20.0000	-65.8263	68.2669	
-15.0000	-65.7241	79.3534	
-10.0000	-64.7031	85.8684	
-5.0000	-64.0703	86.0368	
0.0000	-63.7484	85.3804	
5.0000	-63.8986	82.9025	
10.0000	-64.6983	79.6576	
15.0000	-65.6356	70.7289	
20.0000	-65.4957	56.7693	
25.0000	-64.3384	57.3319	
30.0000	-66.2192	61.5850	
35.0000	-67.3582	41.7563	
40.0000	-66.7487	38.3474	
45.0000	-67.2155	39.5244	
50.0000	-70.4467	13.0154	
55.0000	-68.3753	26.3797	
60.0000	-69.7701	8.0324	
65.0000	-71.2562	-3.8794	
70.0000	-71.0086	13.5270	
75.0000	-71.6133	-16.4402	
80.0000	-72.6594	-0.0348	
85.0000	-71.9785	-15.6026	
90.0000	-69.4057	-22.7550	
95.0000	-68.6438	-64.1548	
100.0000	-72.3479	-66.8939	
105.0000	-72.0224	-67.0525	
110.0000	-68.9764	-71.4885	
115.0000	-67.1125	-93.3761	
120.0000	-67.3001	-127.5680	
125.0000	-70.2881	-140.7144	
130.0000	-69.2524	-126.7891	
135.0000	-66.5788	-135.4785	
140.0000	-66.9996	-161.1512	
145.0000	-66.2138	-159.3061	
150.0000	-65.0963	-157.1938	
155.0000	-67.2585	-169.3212	
160.0000	-64.3784	-175.2197	
165.0000	-66.1393	-169.5012	
170.0000	-66.4732	161.7821	
175.0000	-63.5964	153.3036	
180.0000	-63.3799	155.2061	
			
			
			
[Side Lobes Table]
			
No.	Rel Ampl	Azimuth  [deg]	Absolute Ampl
1L	-1.00	160.00	-64.38
2L	-1.72	150.00	-65.10
3L	-3.20	135.00	-66.58
		 	
File Name:	UWB_patch_stairs_V2.rff		
			
		Phase	
Frequency	4.800 G	 [GHz]	
Polarizat.	0.00000	[deg]
Roll	0.00000	[deg]	
Ch.	Channel1		
Beam			
Switch			
Dir	0.00	dBi	
Azimuth  [deg]	Amplitude (dB)	Phase [Deg]	
-180.0000	-65.1702	-62.7823	
-175.0000	-67.6875	-52.6487	
-170.0000	-68.3325	-19.9155	
-165.0000	-66.3506	-17.0780	
-160.0000	-68.1414	-11.1460	
-155.0000	-66.9880	-10.6290	
-150.0000	-72.3558	5.8273	
-145.0000	-71.4713	18.5744	
-140.0000	-70.5499	31.7015	
-135.0000	-72.5429	84.8111	
-130.0000	-74.8507	67.9231	
-125.0000	-72.4294	82.7897	
-120.0000	-69.3025	96.5973	
-115.0000	-71.7252	137.4525	
-110.0000	-73.5421	163.7462	
-105.0000	-75.0443	-173.6622	
-100.0000	-76.0700	141.7453	
-95.0000	-74.2701	162.1758	
-90.0000	-74.3317	-177.7992	
-85.0000	-73.2335	-154.3017	
-80.0000	-74.7567	-152.7134	
-75.0000	-74.6734	-165.8912	
-70.0000	-72.9857	-154.5906	
-65.0000	-72.3145	-144.5172	
-60.0000	-72.1922	-148.8506	
-55.0000	-69.8946	-151.2445	
-50.0000	-70.3056	-135.1368	
-45.0000	-68.6378	-140.2692	
-40.0000	-68.5598	-128.5572	
-35.0000	-66.3237	-125.5118	
-30.0000	-66.4640	-131.2446	
-25.0000	-66.5976	-121.3807	
-20.0000	-65.1742	-114.8377	
-15.0000	-64.3482	-115.1589	
-10.0000	-63.9365	-113.4726	
-5.0000	-63.5226	-114.1254	
0.0000	-63.5390	-115.5111	
5.0000	-63.7654	-117.9742	
10.0000	-64.3004	-123.8644	
15.0000	-64.4832	-129.7010	
20.0000	-64.6892	-132.4809	
25.0000	-65.7826	-137.2639	
30.0000	-66.2501	-145.6344	
35.0000	-67.1973	-149.0410	
40.0000	-67.4476	-164.4490	
45.0000	-68.8372	-160.3776	
50.0000	-69.2575	178.3397	
55.0000	-70.3757	-168.4021	
60.0000	-70.4453	159.3065	
65.0000	-73.2322	166.7371	
70.0000	-74.4614	164.8255	
75.0000	-71.7753	164.0563	
80.0000	-73.6452	136.0729	
85.0000	-75.1506	145.4089	
90.0000	-75.4056	132.4349	
95.0000	-74.0278	147.5058	
100.0000	-71.4330	109.3063	
105.0000	-71.7335	82.3537	
110.0000	-73.0060	55.0733	
115.0000	-76.8758	50.3375	
120.0000	-76.8692	60.6685	
125.0000	-69.6809	50.4818	
130.0000	-68.1047	16.1906	
135.0000	-69.0165	-4.6940	
140.0000	-70.6547	-0.3998	
145.0000	-68.2111	-18.1685	
150.0000	-66.9935	-24.1590	
155.0000	-67.4312	-17.1659	
160.0000	-67.1259	-31.8823	
165.0000	-67.5305	-29.5238	
170.0000	-68.1464	-52.5488	
175.0000	-65.5633	-64.4738	
180.0000	-65.2372	-63.0822	
			
			
			
[Side Lobes Table]
			
No.	Rel Ampl	Azimuth  [deg]	Absolute Ampl
1L	-2.80	-35.00	-66.32
2L	-6.37	-55.00	-69.89
3L	-9.71	-85.00	-73.23
1R	-8.25	75.00	-71.78
2R	-7.91	100.00	-71.43
3R	-4.58	130.00	-68.10
		 	
File Name:	UWB_patch_stairs_V2.rff		
			
		Phase	
Frequency	5.000 G	 [GHz]	
Polarizat.	0.00000	[deg]	
Roll	0.00000	[deg]
Ch.	Channel1		
Beam			
Switch			
Dir	0.00	dBi	
Azimuth  [deg]	Amplitude (dB)	Phase [Deg]	
-180.0000	-66.2930	-84.0096	
-175.0000	-69.1652	-75.6368	
-170.0000	-70.2261	-41.8558	
-165.0000	-68.2969	-38.7344	
-160.0000	-70.0829	-24.5666	
-155.0000	-68.6355	-30.4799	
-150.0000	-72.2605	0.2316	
-145.0000	-73.5053	4.9894	
-140.0000	-72.1832	-3.3756	
-135.0000	-71.1457	58.4832	
-130.0000	-76.3921	77.3124	
-125.0000	-75.2850	103.0778	
-120.0000	-77.3014	79.6136	
-115.0000	-74.8936	110.7791	
-110.0000	-73.9136	138.7628	
-105.0000	-71.2560	167.8489	
-100.0000	-72.5882	-173.9500	
-95.0000	-74.5238	-164.4724	
-90.0000	-74.9731	-157.2350	
-85.0000	-74.0765	-159.4190	
-80.0000	-72.9932	-156.2262	
-75.0000	-73.9921	-148.7865	
-70.0000	-75.1290	-146.4092	
-65.0000	-72.7441	-152.3142	
-60.0000	-71.6596	-147.3410	
-55.0000	-72.1939	-142.7082	
-50.0000	-71.1775	-145.8307	
-45.0000	-69.0000	-134.6103	
-40.0000	-68.7291	-137.5035	
-35.0000	-68.2525	-130.2323	
-30.0000	-66.8800	-125.9795	
-25.0000	-66.1755	-124.9230	
-20.0000	-65.5344	-124.6688	
-15.0000	-65.9165	-124.8266	
-10.0000	-66.3528	-118.8254	
-5.0000	-65.9037	-113.9132	
0.0000	-65.7605	-113.9283	
5.0000	-65.9216	-119.9324	
10.0000	-65.7567	-131.0816	
15.0000	-65.2431	-137.2298	
20.0000	-65.3063	-139.8837	
25.0000	-66.7879	-141.7008	
30.0000	-67.3285	-156.0791	
35.0000	-67.7495	-159.4073	
40.0000	-68.5517	-167.8132	
45.0000	-69.4894	-176.7777	
50.0000	-70.4077	-175.8659	
55.0000	-71.1522	157.9790	
60.0000	-72.8665	173.2409	
65.0000	-72.3996	149.8047	
70.0000	-73.6048	152.1745	
75.0000	-75.3205	126.6386	
80.0000	-76.7848	146.6019	
85.0000	-74.6003	131.4702	
90.0000	-74.9304	117.7535	
95.0000	-72.9123	99.3231	
100.0000	-74.4303	63.3822	
105.0000	-76.4239	68.5222	
110.0000	-75.7818	69.7764	
115.0000	-73.3142	63.2052	
120.0000	-71.1636	44.8019	
125.0000	-69.5155	18.2004	
130.0000	-71.4410	-16.4893	
135.0000	-72.6086	-19.8019	
140.0000	-70.1491	-5.2034	
145.0000	-69.6945	-33.4752	
150.0000	-68.6178	-40.8892	
155.0000	-68.3000	-34.3720	
160.0000	-68.3043	-50.0527	
165.0000	-68.4113	-47.1437	
170.0000	-69.6163	-71.6759	
175.0000	-66.8099	-85.5713	
180.0000	-66.3579	-83.8837	
			
			
			
[Side Lobes Table]
			
No.	Rel Ampl	Azimuth  [deg]	Absolute Ampl
1L	-0.52	0.00	-65.76
2L	-0.29	-20.00	-65.53
3L	-6.42	-60.00	-71.66
1R	-7.16	65.00	-72.40
2R	-9.36	85.00	-74.60
3R	-7.67	95.00	-72.91
		 	
File Name:	UWB_patch_stairs_V2.rff		
			
		Phase	
Frequency	5.300 G	 [GHz]	
Polarizat.	0.00000	[deg]	
Roll	0.00000	[deg]
Ch.	Channel1		
Beam			
Switch			
Dir	0.00	dBi	
Azimuth  [deg]	Amplitude (dB)	Phase [Deg]	
-180.0000	-67.1135	58.6650	
-175.0000	-70.5664	67.2003	
-170.0000	-71.7623	109.5761	
-165.0000	-69.9683	113.9268	
-160.0000	-70.6297	131.6483	
-155.0000	-70.7717	116.7269	
-150.0000	-72.1905	155.4615	
-145.0000	-73.9225	174.2744	
-140.0000	-78.4840	151.5153	
-135.0000	-72.3780	-163.9628	
-130.0000	-73.9532	-125.9447	
-125.0000	-72.2057	-104.9506	
-120.0000	-74.3681	-76.5491	
-115.0000	-75.8572	-58.6426	
-110.0000	-76.1312	-32.6343	
-105.0000	-76.0218	-42.1839	
-100.0000	-76.0016	-28.6581	
-95.0000	-75.6715	-10.0750	
-90.0000	-72.3610	4.1564	
-85.0000	-71.9770	8.6456	
-80.0000	-73.7456	14.7875	
-75.0000	-74.3470	27.3229	
-70.0000	-74.5457	20.9375	
-65.0000	-72.0981	12.7326	
-60.0000	-71.4669	22.0260	
-55.0000	-70.8676	30.1761	
-50.0000	-71.0298	33.1873	
-45.0000	-68.6998	29.8632	
-40.0000	-69.0012	35.8285	
-35.0000	-67.0850	42.1589	
-30.0000	-67.2464	39.2119	
-25.0000	-66.1581	51.0993	
-20.0000	-64.6717	45.6967	
-15.0000	-65.1732	44.3199	
-10.0000	-65.4353	50.5212	
-5.0000	-65.0270	53.8472	
0.0000	-65.0908	52.9646	
5.0000	-65.6466	48.2708	
10.0000	-66.0754	38.2117	
15.0000	-65.4904	29.4067	
20.0000	-65.6274	28.2177	
25.0000	-66.9215	20.8802	
30.0000	-66.6643	17.5955	
35.0000	-68.4304	13.8005	
40.0000	-69.1222	-0.1747	
45.0000	-69.6166	-1.3158	
50.0000	-71.4398	-14.3214	
55.0000	-71.6995	-21.6861	
60.0000	-75.0998	-22.2198	
65.0000	-72.7557	-17.4970	
70.0000	-74.9653	-32.0761	
75.0000	-74.4056	-34.6135	
80.0000	-75.7749	-61.1859	
85.0000	-78.2475	-52.4677	
90.0000	-75.8469	-59.0823	
95.0000	-76.1586	-65.8007	
100.0000	-73.8621	-67.7995	
105.0000	-73.4336	-92.4065	
110.0000	-74.1112	-121.3899	
115.0000	-75.3831	-153.5882	
120.0000	-75.1263	-179.0122	
125.0000	-76.2731	149.1145	
130.0000	-78.4099	148.9525	
135.0000	-74.2700	151.4220	
140.0000	-69.8635	139.4031	
145.0000	-71.3357	110.8239	
150.0000	-70.4186	103.9741	
155.0000	-69.0704	110.7425	
160.0000	-69.4903	96.5279	
165.0000	-69.6025	100.8166	
170.0000	-70.7321	73.0222	
175.0000	-67.5219	57.6995	
180.0000	-67.1606	58.3439	
			
			
			
[Side Lobes Table]
			
No.	Rel Ampl	Azimuth  [deg]	Absolute Ampl
1L	-2.41	-35.00	-67.08
2L	-4.03	-45.00	-68.70
3L	-6.20	-55.00	-70.87
1R	-0.36	-5.00	-65.03
2R	-0.82	15.00	-65.49
3R	-1.99	30.00	-66.66
		 	
File Name:	UWB_patch_stairs_V2.rff		
			
		Phase	
Frequency	6.000 G	 [GHz]	
Polarizat.	0.00000	[deg]	
Roll	0.00000	[deg]
Ch.	Channel1		
Beam			
Switch			
Dir	0.00	dBi	
Azimuth  [deg]	Amplitude (dB)	Phase [Deg]	
-180.0000	-70.7295	154.6755	
-175.0000	-76.3993	164.0276	
-170.0000	-75.8758	-130.5902	
-165.0000	-75.8296	-135.9347	
-160.0000	-73.7405	-115.9326	
-155.0000	-80.0199	-104.5110	
-150.0000	-78.8819	-108.6294	
-145.0000	-73.9535	-79.1479	
-140.0000	-73.7707	-23.6669	
-135.0000	-77.2064	2.7251	
-130.0000	-76.2562	29.3018	
-125.0000	-77.4942	44.4666	
-120.0000	-75.0993	66.8388	
-115.0000	-74.5166	89.0217	
-110.0000	-73.0719	100.9860	
-105.0000	-71.8434	113.4573	
-100.0000	-72.4668	122.9427	
-95.0000	-73.6856	138.3959	
-90.0000	-73.0257	149.2834	
-85.0000	-72.8328	161.4453	
-80.0000	-73.1878	170.9006	
-75.0000	-73.7923	-179.0537	
-70.0000	-73.4547	-173.9910	
-65.0000	-72.6942	-163.5417	
-60.0000	-72.4742	-162.1313	
-55.0000	-72.5693	-156.8960	
-50.0000	-73.2717	-150.5384	
-45.0000	-72.1136	-163.9500	
-40.0000	-71.4810	-150.6934	
-35.0000	-70.8219	-151.0052	
-30.0000	-70.2880	-149.3316	
-25.0000	-69.4229	-146.5929	
-20.0000	-68.4971	-146.0133	
-15.0000	-68.2462	-148.7735	
-10.0000	-68.2402	-149.3087	
-5.0000	-68.4551	-150.1895	
0.0000	-68.5264	-152.1791	
5.0000	-68.6618	-155.0994	
10.0000	-68.5215	-159.8726	
15.0000	-68.6040	-161.8259	
20.0000	-68.9773	-163.1368	
25.0000	-70.5157	-165.4592	
30.0000	-70.9275	-172.7290	
35.0000	-72.4466	-179.7556	
40.0000	-73.1789	172.9149	
45.0000	-72.2501	172.6644	
50.0000	-73.4765	156.3837	
55.0000	-75.1019	159.3260	
60.0000	-74.7513	156.5462	
65.0000	-74.4783	156.3846	
70.0000	-73.2741	152.7211	
75.0000	-73.4799	140.3085	
80.0000	-73.0620	136.6927	
85.0000	-72.7788	123.1558	
90.0000	-72.5143	100.5131	
95.0000	-72.9282	90.7136	
100.0000	-74.3520	78.4005	
105.0000	-74.1632	52.4067	
110.0000	-73.3301	38.5998	
115.0000	-73.5034	16.6596	
120.0000	-74.6667	-8.3677	
125.0000	-74.7914	-31.1011	
130.0000	-75.5784	-63.3637	
135.0000	-76.3036	-106.1111	
140.0000	-79.1125	-120.8204	
145.0000	-77.3904	-88.2923	
150.0000	-73.5293	-129.9055	
155.0000	-72.7511	-137.6995	
160.0000	-76.4337	-132.6682	
165.0000	-74.4121	-152.0574	
170.0000	-78.4380	-176.7197	
175.0000	-71.6447	151.6423	
180.0000	-70.7305	155.5780	
			
			
			
[Side Lobes Table]
			
No.	Rel Ampl	Azimuth  [deg]	Absolute Ampl
1L	-4.23	-60.00	-72.47
2L	-4.59	-85.00	-72.83
3L	-3.60	-105.00	-71.84
1R	-0.28	10.00	-68.52
2R	-4.01	45.00	-72.25
3R	-5.03	70.00	-73.27
		 	
File Name:	UWB_patch_stairs_V2.rff		
			
		Phase	
Frequency	3.000 G	 [GHz]	
Polarizat.	90.00000	[deg]	
Roll	0.00000	[deg]
Ch.	Channel1		
Beam			
Switch			
Dir	0.00	dBi	
Azimuth  [deg]	Amplitude (dB)	Phase [Deg]	
-180.0000	-76.8618	-133.9381	
-175.0000	-76.7481	-148.5370	
-170.0000	-75.4576	-177.6221	
-165.0000	-74.1243	157.9651	
-160.0000	-74.1700	156.8510	
-155.0000	-70.6627	159.5924	
-150.0000	-68.4220	145.3277	
-145.0000	-69.0304	128.8361	
-140.0000	-70.0913	144.1330	
-135.0000	-67.6183	134.9508	
-130.0000	-71.9883	122.9637	
-125.0000	-74.6549	144.8351	
-120.0000	-71.9990	-143.0182	
-115.0000	-67.3557	-157.7561	
-110.0000	-64.1610	-168.0692	
-105.0000	-66.2421	175.4750	
-100.0000	-65.8566	178.3217	
-95.0000	-67.0695	-178.7509	
-90.0000	-69.6522	-165.2238	
-85.0000	-68.5276	-146.9522	
-80.0000	-66.7651	-135.5259	
-75.0000	-67.4883	-137.4892	
-70.0000	-66.4118	-138.7953	
-65.0000	-69.1523	-130.4685	
-60.0000	-67.6562	-127.4676	
-55.0000	-69.6501	-109.3327	
-50.0000	-67.1020	-108.1108	
-45.0000	-70.4721	-112.3204	
-40.0000	-70.5998	-91.2094	
-35.0000	-70.2495	-95.0051	
-30.0000	-71.4893	-95.0029	
-25.0000	-72.6447	-93.0680	
-20.0000	-74.7352	-86.1433	
-15.0000	-77.3927	-73.1381	
-10.0000	-79.9565	-49.6715	
-5.0000	-82.3644	-36.5527	
0.0000	-87.8744	-4.0552	
5.0000	-95.5997	102.8314	
10.0000	-89.9576	116.8424	
15.0000	-88.8976	79.7306	
20.0000	-80.9709	66.7170	
25.0000	-76.3108	61.6639	
30.0000	-74.6455	65.9074	
35.0000	-72.7720	59.9384	
40.0000	-71.4384	60.3962	
45.0000	-70.7453	61.7654	
50.0000	-71.8301	59.2814	
55.0000	-70.9161	40.0856	
60.0000	-68.9378	36.9123	
65.0000	-68.8560	38.3825	
70.0000	-69.0690	30.7427	
75.0000	-68.2119	17.2338	
80.0000	-67.7238	32.6524	
85.0000	-69.2157	7.4494	
90.0000	-67.4652	5.7994	
95.0000	-68.1043	11.2469	
100.0000	-68.7499	-13.8855	
105.0000	-67.7206	-10.0983	
110.0000	-68.5384	2.8579	
115.0000	-71.8370	-20.1861	
120.0000	-68.5511	-33.8074	
125.0000	-68.1741	-11.7775	
130.0000	-73.4227	-18.5740	
135.0000	-75.9846	-24.6720	
140.0000	-75.0965	-96.4961	
145.0000	-68.9952	-81.5436	
150.0000	-68.6130	-65.4952	
155.0000	-68.5937	-59.3956	
160.0000	-69.8356	-47.9209	
165.0000	-73.9424	-47.1240	
170.0000	-78.6991	-78.8517	
175.0000	-77.7617	-112.8576	
180.0000	-77.1918	-132.5595	
			
			
			
[Side Lobes Table]
			
No.	Rel Ampl	Azimuth  [deg]	Absolute Ampl
1L	-3.46	-135.00	-67.62
2L	-4.26	-150.00	-68.42
1R	-1.70	-100.00	-65.86
2R	-2.60	-80.00	-66.77
3R	-2.25	-70.00	-66.41
		 	
File Name:	UWB_patch_stairs_V2.rff		
			
		Phase	
Frequency	3.400 G	 [GHz]	
Polarizat.	90.00000	[deg]	
Roll	0.00000	[deg]
Ch.	Channel1		
Beam			
Switch			
Dir	0.00	dBi	
Azimuth  [deg]	Amplitude (dB)	Phase [Deg]	
-180.0000	-77.9833	169.9196	
-175.0000	-77.8189	134.8759	
-170.0000	-76.0763	95.3748	
-165.0000	-76.8153	70.7015	
-160.0000	-76.9081	93.4318	
-155.0000	-70.7564	86.0653	
-150.0000	-70.1053	52.4782	
-145.0000	-74.4020	47.5058	
-140.0000	-73.2454	64.0340	
-135.0000	-78.6639	55.9758	
-130.0000	-76.9060	96.4495	
-125.0000	-73.7687	159.2863	
-120.0000	-69.2898	145.1788	
-115.0000	-65.8030	124.1785	
-110.0000	-70.8257	120.8543	
-105.0000	-69.0453	126.3546	
-100.0000	-68.7579	135.8595	
-95.0000	-72.2685	153.4737	
-90.0000	-69.0703	168.5446	
-85.0000	-68.9769	170.1526	
-80.0000	-68.9223	170.0429	
-75.0000	-70.3630	173.4446	
-70.0000	-71.8467	-178.0720	
-65.0000	-70.6685	-165.5842	
-60.0000	-70.7249	-158.2897	
-55.0000	-70.5881	-150.6229	
-50.0000	-70.4413	-149.5671	
-45.0000	-72.1766	-150.8224	
-40.0000	-73.5547	-136.4074	
-35.0000	-73.2735	-123.7979	
-30.0000	-72.6603	-125.8268	
-25.0000	-73.4884	-129.8694	
-20.0000	-76.2188	-133.1210	
-15.0000	-79.8796	-127.0113	
-10.0000	-81.9696	-117.9407	
-5.0000	-84.9421	-102.7090	
0.0000	-93.0575	-53.0746	
5.0000	-91.1663	57.0768	
10.0000	-84.0300	74.1142	
15.0000	-83.8198	74.4868	
20.0000	-81.8452	30.7834	
25.0000	-77.4174	34.3713	
30.0000	-77.3147	39.8867	
35.0000	-76.1675	13.3441	
40.0000	-72.8876	22.1857	
45.0000	-73.6030	16.8544	
50.0000	-73.1390	16.7230	
55.0000	-71.2803	-10.4688	
60.0000	-70.9895	-0.0161	
65.0000	-70.9423	-8.1496	
70.0000	-70.7679	-26.4790	
75.0000	-69.5685	-10.8934	
80.0000	-69.7536	-33.6544	
85.0000	-69.7512	-40.6143	
90.0000	-68.9972	-34.7552	
95.0000	-68.6582	-56.7359	
100.0000	-68.2084	-50.2163	
105.0000	-71.7936	-60.1514	
110.0000	-68.4800	-71.7393	
115.0000	-68.5199	-59.3296	
120.0000	-71.2170	-77.9259	
125.0000	-73.5097	-84.4876	
130.0000	-70.5342	-82.4303	
135.0000	-74.0568	-94.8782	
140.0000	-75.5702	-79.8225	
145.0000	-77.0169	-141.7901	
150.0000	-73.7549	-129.8637	
155.0000	-74.2108	-142.7382	
160.0000	-73.0446	-139.4020	
165.0000	-75.3218	-132.6658	
170.0000	-78.8503	-147.8454	
175.0000	-79.0647	-171.1693	
180.0000	-78.1074	168.8750	
			
			
			
[Side Lobes Table]
			
No.	Rel Ampl	Azimuth  [deg]	Absolute Ampl
1L	-7.44	-140.00	-73.25
2L	-4.30	-150.00	-70.11
1R	-2.95	-100.00	-68.76
2R	-3.12	-80.00	-68.92
3R	-4.87	-65.00	-70.67
		 	
File Name:	UWB_patch_stairs_V2.rff		
			
		Phase	
Frequency	3.700 G	 [GHz]	
Polarizat.	90.00000	[deg]	
Roll	0.00000	[deg]
Ch.	Channel1		
Beam			
Switch			
Dir	0.00	dBi	
Azimuth  [deg]	Amplitude (dB)	Phase [Deg]	
-180.0000	-82.7441	-70.1250	
-175.0000	-81.3679	-111.6718	
-170.0000	-79.4355	-148.1520	
-165.0000	-82.0495	-159.9811	
-160.0000	-78.6180	-133.5127	
-155.0000	-75.6195	-159.1034	
-150.0000	-76.9924	-171.4042	
-145.0000	-81.1161	142.7418	
-140.0000	-84.7819	-112.8996	
-135.0000	-80.8807	-69.6258	
-130.0000	-81.8243	-51.2030	
-125.0000	-69.8267	-69.2450	
-120.0000	-70.4396	-69.5884	
-115.0000	-71.9314	-101.1053	
-110.0000	-71.6046	-82.0630	
-105.0000	-72.2783	-75.6971	
-100.0000	-75.8889	-50.9547	
-95.0000	-73.3709	-36.3839	
-90.0000	-72.0271	-48.1774	
-85.0000	-71.4695	-41.4875	
-80.0000	-73.7280	-33.7020	
-75.0000	-73.8500	-19.4569	
-70.0000	-72.1661	0.8087	
-65.0000	-74.2597	-7.2717	
-60.0000	-72.4029	-4.0745	
-55.0000	-75.8334	10.8638	
-50.0000	-73.9651	8.8426	
-45.0000	-75.9556	29.7734	
-40.0000	-74.3494	30.3641	
-35.0000	-75.8614	24.3216	
-30.0000	-78.2756	22.5988	
-25.0000	-79.5708	35.9109	
-20.0000	-79.1174	42.4264	
-15.0000	-80.5661	35.6365	
-10.0000	-84.4657	38.5720	
-5.0000	-93.9212	81.6686	
0.0000	-93.2131	175.3898	
5.0000	-86.5118	-136.5692	
10.0000	-83.4546	-129.6449	
15.0000	-81.6179	-134.5415	
20.0000	-80.8096	-147.6447	
25.0000	-80.1933	-152.3355	
30.0000	-78.4761	-171.2293	
35.0000	-75.7005	-172.3393	
40.0000	-75.0601	-165.4249	
45.0000	-77.4923	-178.9512	
50.0000	-74.2100	175.2625	
55.0000	-74.3147	163.4867	
60.0000	-74.0072	179.9134	
65.0000	-72.1299	135.9542	
70.0000	-73.8131	148.9929	
75.0000	-72.9102	139.0084	
80.0000	-70.5770	124.0633	
85.0000	-73.2102	123.8822	
90.0000	-71.7994	102.3654	
95.0000	-72.2666	112.8321	
100.0000	-70.6831	95.9147	
105.0000	-70.0055	91.3478	
110.0000	-73.0854	87.6483	
115.0000	-70.9873	86.6571	
120.0000	-71.1311	77.5285	
125.0000	-72.5070	91.0692	
130.0000	-74.2671	69.9772	
135.0000	-75.9355	63.4607	
140.0000	-77.5258	71.0251	
145.0000	-77.3886	28.9480	
150.0000	-77.4686	51.1052	
155.0000	-82.6816	4.8692	
160.0000	-77.8044	3.8080	
165.0000	-80.2977	20.7246	
170.0000	-85.9269	-23.1783	
175.0000	-83.4556	-52.5116	
180.0000	-82.1361	-71.1108	
			
			
			
[Side Lobes Table]
			
No.	Rel Ampl	Azimuth  [deg]	Absolute Ampl
1L	-11.05	-135.00	-80.88
2L	-5.79	-155.00	-75.62
1R	-1.78	-110.00	-71.60
2R	-1.64	-85.00	-71.47
3R	-2.34	-70.00	-72.17
		 	
File Name:	UWB_patch_stairs_V2.rff		
			
		Phase	
Frequency	4.000 G	 [GHz]	
Polarizat.	90.00000	[deg]	
Roll	0.00000	[deg]
Ch.	Channel1		
Beam			
Switch			
Dir	0.00	dBi	
Azimuth  [deg]	Amplitude (dB)	Phase [Deg]	
-180.0000	-90.4923	115.7368	
-175.0000	-95.3356	22.3010	
-170.0000	-93.8996	-36.0205	
-165.0000	-90.6322	49.5961	
-160.0000	-80.7642	26.9350	
-155.0000	-83.5547	-10.0808	
-150.0000	-88.3762	-8.6559	
-145.0000	-86.7246	104.1697	
-140.0000	-78.5846	82.8452	
-135.0000	-77.9991	78.3464	
-130.0000	-72.7191	108.6082	
-125.0000	-71.7220	83.7340	
-120.0000	-72.3168	65.1254	
-115.0000	-72.6066	82.4969	
-110.0000	-73.4655	86.4814	
-105.0000	-78.3102	106.9216	
-100.0000	-74.4004	121.3137	
-95.0000	-72.1931	113.4331	
-90.0000	-73.5339	123.9083	
-85.0000	-76.0161	121.0580	
-80.0000	-76.1208	139.6232	
-75.0000	-74.6705	142.0122	
-70.0000	-75.4438	144.8841	
-65.0000	-75.4707	153.6063	
-60.0000	-76.7740	166.4510	
-55.0000	-76.5439	173.3369	
-50.0000	-76.1865	-177.8258	
-45.0000	-78.5309	-174.2887	
-40.0000	-75.5834	-163.9845	
-35.0000	-78.6657	178.8275	
-30.0000	-81.1231	-143.3678	
-25.0000	-79.8763	-142.2002	
-20.0000	-80.0752	-153.0737	
-15.0000	-81.8430	-153.7467	
-10.0000	-84.3149	-160.6676	
-5.0000	-89.1093	-177.2911	
0.0000	-92.7141	155.2562	
5.0000	-98.1500	121.9363	
10.0000	-93.1417	20.1329	
15.0000	-86.2006	0.0070	
20.0000	-82.3353	7.2013	
25.0000	-80.8351	10.1922	
30.0000	-82.7415	14.1968	
35.0000	-78.5120	-7.9614	
40.0000	-79.3825	12.0955	
45.0000	-79.0604	-19.7778	
50.0000	-77.0187	-29.5484	
55.0000	-75.9744	-18.7006	
60.0000	-76.3538	-47.1202	
65.0000	-74.6025	-38.4773	
70.0000	-76.5998	-62.4452	
75.0000	-74.0894	-62.3518	
80.0000	-73.6754	-60.0325	
85.0000	-72.7401	-88.8383	
90.0000	-74.1347	-74.8726	
95.0000	-73.1342	-96.1456	
100.0000	-72.7964	-88.1889	
105.0000	-72.0912	-103.2531	
110.0000	-71.1659	-108.9582	
115.0000	-71.5528	-109.4818	
120.0000	-73.7261	-130.8239	
125.0000	-71.0012	-119.9171	
130.0000	-75.7621	-113.8903	
135.0000	-73.7936	-128.2538	
140.0000	-77.0837	-134.0943	
145.0000	-82.2344	-132.9089	
150.0000	-78.5163	173.2314	
155.0000	-76.6571	-171.3632	
160.0000	-78.2177	-156.1114	
165.0000	-84.0926	-152.8185	
170.0000	-90.2151	130.0076	
175.0000	-87.4930	106.9338	
180.0000	-90.8460	112.8282	
			
			
			
[Side Lobes Table]
			
No.	Rel Ampl	Azimuth  [deg]	Absolute Ampl
1L	-0.16	110.00	-71.17
2L	-1.74	85.00	-72.74
3L	-3.60	65.00	-74.60
1R	-2.79	135.00	-73.79
2R	-5.66	155.00	-76.66
3R	-16.49	175.00	-87.49
		 	
File Name:	UWB_patch_stairs_V2.rff		
			
		Phase	
Frequency	4.300 G	 [GHz]	
Polarizat.	90.00000	[deg]	
Roll	0.00000	[deg]
Ch.	Channel1		
Beam			
Switch			
Dir	0.00	dBi	
Azimuth  [deg]	Amplitude (dB)	Phase [Deg]	
-180.0000	-85.9275	-159.2713	
-175.0000	-87.2168	-148.1417	
-170.0000	-83.0637	-124.6329	
-165.0000	-77.8749	-144.5477	
-160.0000	-78.6508	178.0691	
-155.0000	-82.6427	-137.5832	
-150.0000	-79.1492	-153.6272	
-145.0000	-76.2913	-120.7326	
-140.0000	-78.9952	-138.8282	
-135.0000	-74.6869	-121.4873	
-130.0000	-71.1777	-103.2015	
-125.0000	-71.1918	-126.3763	
-120.0000	-75.5425	-114.3954	
-115.0000	-73.9075	-123.3639	
-110.0000	-77.8365	-110.2183	
-105.0000	-75.6621	-68.4362	
-100.0000	-75.3808	-86.5540	
-95.0000	-75.4278	-82.4168	
-90.0000	-76.1553	-82.7673	
-85.0000	-77.3667	-63.0838	
-80.0000	-75.5966	-57.2489	
-75.0000	-76.5022	-43.6664	
-70.0000	-78.3218	-38.9089	
-65.0000	-79.0898	-42.5584	
-60.0000	-75.9889	-30.6719	
-55.0000	-78.3790	-4.5362	
-50.0000	-79.4289	-12.8446	
-45.0000	-77.1697	-8.1163	
-40.0000	-82.9747	19.8390	
-35.0000	-77.7586	15.4031	
-30.0000	-80.5540	15.8067	
-25.0000	-79.4540	19.2291	
-20.0000	-83.5728	15.3650	
-15.0000	-86.1685	60.7693	
-10.0000	-83.8789	74.3925	
-5.0000	-83.1864	72.2307	
0.0000	-85.3678	74.4669	
5.0000	-85.9100	68.6951	
10.0000	-84.4071	69.0544	
15.0000	-80.8740	92.3467	
20.0000	-80.0485	128.9379	
25.0000	-84.6575	160.1378	
30.0000	-83.5836	124.8822	
35.0000	-87.9890	167.4295	
40.0000	-80.5411	101.0150	
45.0000	-82.2504	144.2342	
50.0000	-78.3111	126.3142	
55.0000	-81.6025	86.9102	
60.0000	-78.8510	118.8441	
65.0000	-77.8049	112.3552	
70.0000	-76.2142	95.3527	
75.0000	-79.0843	93.6764	
80.0000	-76.7867	81.3650	
85.0000	-76.9779	92.8564	
90.0000	-74.5655	69.8582	
95.0000	-74.7919	63.0746	
100.0000	-73.7082	45.3617	
105.0000	-75.8923	44.5963	
110.0000	-74.9516	38.9408	
115.0000	-74.0848	41.1242	
120.0000	-75.1759	43.9923	
125.0000	-73.5436	23.8896	
130.0000	-75.2391	33.1102	
135.0000	-80.1812	50.2301	
140.0000	-75.9628	20.3317	
145.0000	-82.2691	84.6051	
150.0000	-97.6752	-90.5831	
155.0000	-80.2375	-83.5324	
160.0000	-78.5717	-30.9963	
165.0000	-82.5322	19.7460	
170.0000	-91.3557	138.7475	
175.0000	-85.3578	-165.6940	
180.0000	-84.8687	-161.6946	
			
			
			
[Side Lobes Table]
			
No.	Rel Ampl	Azimuth  [deg]	Absolute Ampl
1L	-5.11	-145.00	-76.29
2L	-6.70	-165.00	-77.87
1R	-2.73	-115.00	-73.91
2R	-4.20	-100.00	-75.38
3R	-4.42	-80.00	-75.60
		 	
File Name:	UWB_patch_stairs_V2.rff		
			
		Phase	
Frequency	4.500 G	 [GHz]	
Polarizat.	90.00000	[deg]	
Roll	0.00000	[deg]
Ch.	Channel1		
Beam			
Switch			
Dir	0.00	dBi	
Azimuth  [deg]	Amplitude (dB)	Phase [Deg]	
-180.0000	-86.4504	-139.0492	
-175.0000	-82.8394	-150.0083	
-170.0000	-81.0007	-162.2269	
-165.0000	-79.1124	-176.1455	
-160.0000	-80.5978	168.6968	
-155.0000	-79.4185	-156.3552	
-150.0000	-76.1860	-168.6911	
-145.0000	-77.9020	-152.0475	
-140.0000	-74.8808	-156.4759	
-135.0000	-74.5747	-129.3069	
-130.0000	-71.9723	-142.5814	
-125.0000	-72.2196	-153.5435	
-120.0000	-73.9713	-138.4603	
-115.0000	-73.7717	-142.1714	
-110.0000	-75.7256	-115.7335	
-105.0000	-72.9879	-105.0054	
-100.0000	-75.2245	-96.5750	
-95.0000	-75.9278	-95.9046	
-90.0000	-78.7095	-90.5757	
-85.0000	-78.2472	-91.9423	
-80.0000	-77.2331	-89.6337	
-75.0000	-76.9929	-69.7450	
-70.0000	-78.9757	-65.7302	
-65.0000	-78.5955	-52.7488	
-60.0000	-80.5427	-48.3374	
-55.0000	-80.9214	-62.3357	
-50.0000	-77.8584	-41.7836	
-45.0000	-84.4001	-24.7565	
-40.0000	-79.2818	-35.4865	
-35.0000	-83.5614	-22.7269	
-30.0000	-83.2372	-13.9628	
-25.0000	-82.9033	-6.3628	
-20.0000	-82.2140	-20.1117	
-15.0000	-86.6395	-26.9638	
-10.0000	-94.5211	-8.3420	
-5.0000	-92.2379	58.6208	
0.0000	-89.3605	65.2101	
5.0000	-87.9188	67.6083	
10.0000	-87.4161	86.1529	
15.0000	-88.4251	111.8131	
20.0000	-92.8283	150.4577	
25.0000	-101.5692	85.6226	
30.0000	-88.3012	87.5573	
35.0000	-82.3367	99.2533	
40.0000	-82.9876	151.1071	
45.0000	-84.3074	98.9825	
50.0000	-85.7142	114.8382	
55.0000	-80.0391	118.2737	
60.0000	-80.6891	94.7251	
65.0000	-78.8272	82.6302	
70.0000	-84.1151	75.6941	
75.0000	-78.2539	92.8761	
80.0000	-78.7607	90.1979	
85.0000	-75.0934	76.3562	
90.0000	-75.7150	62.1291	
95.0000	-73.3006	51.6118	
100.0000	-76.1074	41.2390	
105.0000	-74.0377	38.7799	
110.0000	-75.1131	30.8743	
115.0000	-74.0663	25.1760	
120.0000	-72.4366	15.7217	
125.0000	-75.3253	15.6908	
130.0000	-71.4080	14.8016	
135.0000	-78.7976	7.6423	
140.0000	-73.8757	13.4628	
145.0000	-77.9814	-0.2225	
150.0000	-80.4295	50.6591	
155.0000	-81.4793	-95.5202	
160.0000	-78.0426	-50.8946	
165.0000	-81.0391	-25.4155	
170.0000	-88.6739	-5.6040	
175.0000	-95.7468	-115.0965	
180.0000	-85.2943	-136.7770	
			
			
			
[Side Lobes Table]
			
No.	Rel Ampl	Azimuth  [deg]	Absolute Ampl
1L	-1.03	120.00	-72.44
2L	-2.63	105.00	-74.04
3L	-1.89	95.00	-73.30
1R	-2.47	140.00	-73.88
2R	-6.63	160.00	-78.04
		 	
File Name:	UWB_patch_stairs_V2.rff		
			
		Phase	
Frequency	4.800 G	 [GHz]	
Polarizat.	90.00000	[deg]	
Roll	0.00000	[deg]
Ch.	Channel1		
Beam			
Switch			
Dir	0.00	dBi	
Azimuth  [deg]	Amplitude (dB)	Phase [Deg]	
-180.0000	-85.5483	-30.7800	
-175.0000	-81.7646	-38.6069	
-170.0000	-80.5634	-48.7760	
-165.0000	-82.0796	-39.3442	
-160.0000	-77.3201	-22.4833	
-155.0000	-75.6168	-37.6993	
-150.0000	-77.4011	-18.3008	
-145.0000	-77.3613	-11.4370	
-140.0000	-75.4859	-7.3702	
-135.0000	-72.5847	9.4935	
-130.0000	-72.1749	4.7148	
-125.0000	-76.4468	8.5856	
-120.0000	-75.5643	10.7285	
-115.0000	-77.4415	16.6071	
-110.0000	-75.6420	52.1699	
-105.0000	-77.4546	44.6726	
-100.0000	-76.5803	48.8974	
-95.0000	-77.7581	46.2539	
-90.0000	-78.2388	57.4651	
-85.0000	-78.8324	62.4253	
-80.0000	-77.6868	73.5968	
-75.0000	-80.2750	89.8706	
-70.0000	-85.2402	94.9635	
-65.0000	-84.5551	96.0072	
-60.0000	-84.2928	77.8145	
-55.0000	-86.8644	112.1473	
-50.0000	-88.6038	102.6640	
-45.0000	-86.8276	127.7281	
-40.0000	-88.8278	129.2021	
-35.0000	-89.2064	146.9833	
-30.0000	-88.3456	158.0156	
-25.0000	-90.4693	159.0949	
-20.0000	-92.8341	-169.9944	
-15.0000	-89.4941	-171.4024	
-10.0000	-87.5786	-175.0339	
-5.0000	-87.0745	-171.6318	
0.0000	-86.5975	-171.0887	
5.0000	-84.9520	-175.5769	
10.0000	-83.9325	-164.1760	
15.0000	-86.0716	-142.6913	
20.0000	-88.1850	-140.7977	
25.0000	-93.4807	-135.3458	
30.0000	-90.9410	171.8998	
35.0000	-86.6660	-163.4514	
40.0000	-91.9949	-162.5502	
45.0000	-86.3029	-153.5496	
50.0000	-88.2471	-126.8592	
55.0000	-94.3725	167.6425	
60.0000	-83.9547	-128.1196	
65.0000	-84.2792	-132.0774	
70.0000	-81.4097	-157.1315	
75.0000	-88.3363	-149.9644	
80.0000	-82.5076	-137.3216	
85.0000	-82.5691	-124.3755	
90.0000	-79.0938	-135.9142	
95.0000	-79.6610	-144.6227	
100.0000	-76.9513	-147.8893	
105.0000	-77.1770	-175.1657	
110.0000	-75.5189	-174.9002	
115.0000	-75.8349	-177.8235	
120.0000	-73.0816	163.8609	
125.0000	-74.2686	161.7975	
130.0000	-73.6187	146.0733	
135.0000	-76.1691	164.0304	
140.0000	-76.1649	154.9215	
145.0000	-75.9584	141.0761	
150.0000	-80.9642	172.8512	
155.0000	-84.2640	140.4723	
160.0000	-94.1917	71.6090	
165.0000	-82.2938	65.8109	
170.0000	-86.5574	93.8226	
175.0000	-100.3244	7.6859	
180.0000	-85.8073	-30.0897	
			
			
			
[Side Lobes Table]
			
No.	Rel Ampl	Azimuth  [deg]	Absolute Ampl
1L	-3.44	-155.00	-75.62
1R	-3.39	-120.00	-75.56
2R	-3.47	-110.00	-75.64
3R	-4.41	-100.00	-76.58
		 	
File Name:	UWB_patch_stairs_V2.rff		
			
		Phase	
Frequency	5.000 G	 [GHz]	
Polarizat.	90.00000	[deg]	
Roll	0.00000	[deg]
Ch.	Channel1		
Beam			
Switch			
Dir	0.00	dBi	
Azimuth  [deg]	Amplitude (dB)	Phase [Deg]	
-180.0000	-88.5564	-44.4775	
-175.0000	-84.3087	-51.9799	
-170.0000	-81.1991	-52.5087	
-165.0000	-79.9202	-56.0889	
-160.0000	-77.5332	-37.0232	
-155.0000	-75.1615	-51.2309	
-150.0000	-78.0671	-24.2537	
-145.0000	-75.4219	-32.5001	
-140.0000	-73.8787	-18.8657	
-135.0000	-72.7423	-7.3692	
-130.0000	-73.3287	-15.1870	
-125.0000	-76.8325	-6.2593	
-120.0000	-74.3318	-5.8307	
-115.0000	-76.5069	15.2509	
-110.0000	-75.6009	24.6984	
-105.0000	-79.0947	40.5471	
-100.0000	-78.7638	30.6708	
-95.0000	-82.0814	32.1216	
-90.0000	-82.2178	42.7405	
-85.0000	-84.4262	50.3461	
-80.0000	-83.8380	36.4346	
-75.0000	-84.3545	34.3284	
-70.0000	-84.5306	70.2533	
-65.0000	-88.8325	76.8258	
-60.0000	-92.3501	58.5253	
-55.0000	-93.3793	42.1093	
-50.0000	-94.5364	45.8506	
-45.0000	-86.6896	85.4065	
-40.0000	-99.1057	61.9625	
-35.0000	-95.5384	105.8799	
-30.0000	-96.8592	130.9149	
-25.0000	-101.4052	103.9849	
-20.0000	-102.3176	158.8701	
-15.0000	-94.6606	128.4930	
-10.0000	-93.9499	108.8468	
-5.0000	-98.9667	132.8033	
0.0000	-95.3856	154.4390	
5.0000	-93.9537	-155.9116	
10.0000	-95.2362	-110.3737	
15.0000	-97.7232	31.3981	
20.0000	-97.7908	79.6697	
25.0000	-95.8504	172.2822	
30.0000	-99.9109	-170.7437	
35.0000	-99.5526	-130.1782	
40.0000	-92.3383	-164.3010	
45.0000	-91.0973	-56.5686	
50.0000	-93.2066	-161.3748	
55.0000	-87.0989	-134.4797	
60.0000	-90.7931	178.4312	
65.0000	-88.5124	-165.7821	
70.0000	-93.3561	-94.4080	
75.0000	-82.0730	-131.4861	
80.0000	-84.0079	-143.7398	
85.0000	-78.8807	-135.5825	
90.0000	-77.7878	-154.4831	
95.0000	-75.4582	-157.7565	
100.0000	-75.0741	-174.1525	
105.0000	-74.8380	175.6271	
110.0000	-74.4035	170.6647	
115.0000	-74.4405	168.4035	
120.0000	-72.9967	158.6527	
125.0000	-72.3174	150.2437	
130.0000	-72.5377	131.6411	
135.0000	-73.2763	139.2962	
140.0000	-76.1853	135.5753	
145.0000	-74.2728	126.8576	
150.0000	-77.5809	120.6730	
155.0000	-78.8018	134.5287	
160.0000	-84.0868	70.1202	
165.0000	-80.2532	75.3335	
170.0000	-84.6817	87.5880	
175.0000	-97.2964	24.4896	
180.0000	-88.4373	-49.9873	
			
			
			
[Side Lobes Table]
			
No.	Rel Ampl	Azimuth  [deg]	Absolute Ampl
1L	-2.09	110.00	-74.40
2L	-9.76	75.00	-82.07
3L	-16.19	65.00	-88.51
1R	-1.96	145.00	-74.27
2R	-7.94	165.00	-80.25
		 	
File Name:	UWB_patch_stairs_V2.rff		
			
		Phase	
Frequency	5.300 G	 [GHz]	
Polarizat.	90.00000	[deg]	
Roll	0.00000	[deg]
Ch.	Channel1		
Beam			
Switch			
Dir	0.00	dBi	
Azimuth  [deg]	Amplitude (dB)	Phase [Deg]	
-180.0000	-87.3213	63.3603	
-175.0000	-85.5162	63.1323	
-170.0000	-82.3366	80.1230	
-165.0000	-78.1016	78.5690	
-160.0000	-77.4057	79.8178	
-155.0000	-76.3307	71.8903	
-150.0000	-77.5092	112.6510	
-145.0000	-77.3981	98.5678	
-140.0000	-74.2418	111.9860	
-135.0000	-72.6392	126.3108	
-130.0000	-74.2960	128.1666	
-125.0000	-75.3378	148.7868	
-120.0000	-76.6360	152.1710	
-115.0000	-78.3042	-178.8860	
-110.0000	-78.5350	-177.5199	
-105.0000	-79.0823	-169.5568	
-100.0000	-82.7906	172.7746	
-95.0000	-84.4158	-173.3469	
-90.0000	-85.5578	-164.0188	
-85.0000	-84.4410	-164.7682	
-80.0000	-86.7263	-165.3734	
-75.0000	-85.1979	-161.7927	
-70.0000	-85.2411	-148.5118	
-65.0000	-92.1782	-145.3231	
-60.0000	-92.7737	-144.0082	
-55.0000	-95.9393	138.5149	
-50.0000	-91.7999	-143.5388	
-45.0000	-90.1364	132.7556	
-40.0000	-93.9970	-120.8648	
-35.0000	-118.1025	114.7499	
-30.0000	-113.5634	-153.0096	
-25.0000	-102.0624	-82.1510	
-20.0000	-100.3302	-179.6326	
-15.0000	-95.4529	43.1277	
-10.0000	-93.4353	7.8577	
-5.0000	-96.2209	-20.1480	
0.0000	-100.6294	-40.4789	
5.0000	-95.7188	-67.1694	
10.0000	-91.6879	-75.4430	
15.0000	-86.9493	-42.9334	
20.0000	-86.6221	0.9285	
25.0000	-106.9683	162.9304	
30.0000	-93.3599	-71.4140	
35.0000	-90.7418	-61.6993	
40.0000	-97.7406	-74.8452	
45.0000	-86.6641	-50.1687	
50.0000	-93.1123	-67.4252	
55.0000	-92.8963	-67.3135	
60.0000	-86.1291	-59.2154	
65.0000	-90.1671	-116.3941	
70.0000	-95.4549	-72.5042	
75.0000	-94.9923	-108.7853	
80.0000	-91.1129	-10.9160	
85.0000	-88.9952	-37.9613	
90.0000	-83.5996	-10.8390	
95.0000	-79.0993	-27.6753	
100.0000	-78.5300	-27.6797	
105.0000	-76.9653	-40.3600	
110.0000	-75.6836	-49.1481	
115.0000	-75.0990	-60.7742	
120.0000	-75.4332	-70.3598	
125.0000	-73.6876	-78.1797	
130.0000	-75.9071	-89.9527	
135.0000	-74.7638	-84.7836	
140.0000	-77.0409	-76.4783	
145.0000	-75.7337	-97.6154	
150.0000	-79.5294	-103.9813	
155.0000	-81.4066	-98.0980	
160.0000	-84.0197	-130.5422	
165.0000	-84.8171	-125.0986	
170.0000	-93.7905	-127.2032	
175.0000	-97.2366	84.3662	
180.0000	-87.2785	60.9801	
			
			
			
[Side Lobes Table]
			
No.	Rel Ampl	Azimuth  [deg]	Absolute Ampl
1R	-11.80	-85.00	-84.44
2R	-12.56	-75.00	-85.20
3R	-17.50	-45.00	-90.14
		 	
File Name:	UWB_patch_stairs_V2.rff		
			
		Phase	
Frequency	6.000 G	 [GHz]	
Polarizat.	90.00000	[deg]	
Roll	0.00000	[deg]
Ch.	Channel1		
Beam			
Switch			
Dir	0.00	dBi	
Azimuth  [deg]	Amplitude (dB)	Phase [Deg]	
-180.0000	-91.5289	85.3250	
-175.0000	-92.7394	139.9053	
-170.0000	-85.0001	147.5486	
-165.0000	-87.4399	109.1386	
-160.0000	-85.6793	-154.0947	
-155.0000	-92.2117	-163.5066	
-150.0000	-79.4685	-166.8622	
-145.0000	-76.7744	-133.2956	
-140.0000	-77.9404	-127.8242	
-135.0000	-79.4715	-132.0196	
-130.0000	-83.6260	-115.9496	
-125.0000	-83.7237	-98.7857	
-120.0000	-84.3200	-77.1538	
-115.0000	-81.5811	-89.4530	
-110.0000	-81.9382	-101.5945	
-105.0000	-86.0172	-117.2321	
-100.0000	-88.1519	-111.2777	
-95.0000	-90.5500	-100.4660	
-90.0000	-83.8110	-65.5604	
-85.0000	-80.8794	-69.5247	
-80.0000	-81.5790	-90.3854	
-75.0000	-84.0271	-82.5974	
-70.0000	-83.4613	-74.1360	
-65.0000	-83.2742	-60.9486	
-60.0000	-83.0017	-41.5359	
-55.0000	-82.9276	-38.9868	
-50.0000	-84.3177	-5.0845	
-45.0000	-93.1205	-27.7646	
-40.0000	-89.5736	-13.2909	
-35.0000	-92.9367	-46.7570	
-30.0000	-101.5959	122.7023	
-25.0000	-89.9913	85.6909	
-20.0000	-85.3970	-22.4509	
-15.0000	-83.4429	-110.3608	
-10.0000	-84.0731	-168.0159	
-5.0000	-87.8328	162.2023	
0.0000	-100.4207	162.4947	
5.0000	-95.0305	-41.1957	
10.0000	-95.3191	51.3577	
15.0000	-89.4862	156.2574	
20.0000	-87.6267	-123.9382	
25.0000	-106.5613	168.6837	
30.0000	-102.9152	-128.4155	
35.0000	-86.8613	136.3676	
40.0000	-88.7979	132.4725	
45.0000	-86.3929	102.0698	
50.0000	-92.7630	84.0539	
55.0000	-89.4873	100.4792	
60.0000	-90.3578	100.7017	
65.0000	-87.6868	103.7530	
70.0000	-93.1015	83.3742	
75.0000	-92.3051	138.2312	
80.0000	-96.3924	90.3634	
85.0000	-90.0861	18.4129	
90.0000	-85.8454	43.3962	
95.0000	-82.3810	79.0579	
100.0000	-84.6390	98.4838	
105.0000	-87.6831	111.5857	
110.0000	-88.7603	29.1444	
115.0000	-82.1113	26.0217	
120.0000	-78.4058	35.1642	
125.0000	-78.3550	28.4429	
130.0000	-76.6673	20.6280	
135.0000	-77.8991	7.5018	
140.0000	-79.9992	0.7310	
145.0000	-86.0281	0.5442	
150.0000	-80.2427	32.4849	
155.0000	-83.3913	-31.5924	
160.0000	-97.5757	129.5995	
165.0000	-82.6617	-68.7793	
170.0000	-84.2963	-0.9089	
175.0000	-88.5455	56.0862	
180.0000	-91.9212	89.5538	
			
			
			
[Side Lobes Table]
			
No.	Rel Ampl	Azimuth  [deg]	Absolute Ampl
1L	-5.71	95.00	-82.38
2L	-15.64	75.00	-92.31
3L	-11.02	65.00	-87.69
1R	-3.58	150.00	-80.24
		 	

File Name:	UWB_patch_stairs_V2.rff		
			
		Phase	
Frequency	3.000 G	 [GHz]	
Polarizat.	0.00000	[deg]	
Roll	179.00000	[deg]
Ch.	Channel1		
Beam			
Switch			
Dir	0.00	dBi	
Azimuth  [deg]	Amplitude (dB)	Phase [Deg]	
-180.0000	-59.0092	143.1705	
-175.0000	-60.1562	144.4203	
-170.0000	-62.8688	152.9381	
-165.0000	-63.4629	-179.0802	
-160.0000	-59.7784	-169.8213	
-155.0000	-58.4755	179.1534	
-150.0000	-59.4682	170.8486	
-145.0000	-60.6850	173.7250	
-140.0000	-61.4017	179.3405	
-135.0000	-61.9478	-174.6009	
-130.0000	-62.5970	-176.0865	
-125.0000	-68.1093	-170.4627	
-120.0000	-66.9638	-123.3204	
-115.0000	-63.5952	-119.0020	
-110.0000	-65.3823	-115.0591	
-105.0000	-62.3900	-107.8448	
-100.0000	-63.4874	-109.3061	
-95.0000	-64.7507	-123.0782	
-90.0000	-68.0064	-92.8809	
-85.0000	-67.2276	-79.1743	
-80.0000	-66.8444	-71.8365	
-75.0000	-64.5175	-55.3209	
-70.0000	-64.2502	-75.0587	
-65.0000	-66.1554	-52.8219	
-60.0000	-65.4693	-66.9766	
-55.0000	-67.8653	-36.2970	
-50.0000	-64.3758	-43.7409	
-45.0000	-66.4307	-32.2977	
-40.0000	-63.5627	-28.4009	
-35.0000	-64.5523	-37.0052	
-30.0000	-65.7154	-25.2381	
-25.0000	-64.5022	-20.7689	
-20.0000	-64.3931	-22.8611	
-15.0000	-65.0403	-22.0896	
-10.0000	-65.3413	-17.7693	
-5.0000	-65.1844	-14.6907	
0.0000	-65.0654	-12.0875	
5.0000	-65.0938	-14.5371	
10.0000	-65.1245	-19.5466	
15.0000	-64.7064	-24.1866	
20.0000	-64.6256	-26.3934	
25.0000	-64.5961	-28.8782	
30.0000	-64.8722	-33.7738	
35.0000	-64.8588	-40.2651	
40.0000	-64.4193	-46.4593	
45.0000	-63.8432	-49.8553	
50.0000	-64.1539	-49.2600	
55.0000	-66.0550	-59.8600	
60.0000	-63.7046	-73.1936	
65.0000	-64.5668	-62.3895	
70.0000	-64.3901	-79.0852	
75.0000	-66.2078	-87.5040	
80.0000	-62.4563	-96.0723	
85.0000	-65.7893	-100.4601	
90.0000	-64.5953	-113.8181	
95.0000	-62.4393	-114.7382	
100.0000	-66.5251	-133.6889	
105.0000	-62.3452	-134.0555	
110.0000	-62.3849	-146.6137	
115.0000	-63.9890	-142.6882	
120.0000	-62.5030	-156.2421	
125.0000	-63.7628	-173.7436	
130.0000	-62.1771	-172.2056	
135.0000	-61.9165	170.4495	
140.0000	-61.3935	177.6801	
145.0000	-62.1778	157.2000	
150.0000	-59.3391	159.5281	
155.0000	-60.0658	173.1171	
160.0000	-62.8593	168.1479	
165.0000	-62.7663	146.1615	
170.0000	-60.1568	139.5960	
175.0000	-58.9841	141.8813	
180.0000	-59.0025	143.1817	
			
			
			
[Side Lobes Table]
			
No.	Rel Ampl	Azimuth  [deg]	Absolute Ampl
1R	-5.12	-115.00	-63.60
2R	-3.91	-105.00	-62.39
3R	-5.77	-70.00	-64.25
		 	
File Name:	UWB_patch_stairs_V2.rff		
			
		Phase	
Frequency	3.400 G	 [GHz]	
Polarizat.	0.00000	[deg]	
Roll	179.00000	[deg]
Ch.	Channel1		
Beam			
Switch			
Dir	0.00	dBi	
Azimuth  [deg]	Amplitude (dB)	Phase [Deg]	
-180.0000	-62.1634	91.3882	
-175.0000	-63.3099	93.3986	
-170.0000	-65.5481	112.0295	
-165.0000	-63.9981	135.7360	
-160.0000	-61.5825	133.4484	
-155.0000	-61.8072	126.5237	
-150.0000	-63.1677	125.9764	
-145.0000	-64.5289	135.8262	
-140.0000	-63.9536	143.9162	
-135.0000	-65.1957	147.3592	
-130.0000	-67.5541	142.7953	
-125.0000	-68.5968	-151.6219	
-120.0000	-65.2924	-166.8204	
-115.0000	-66.6543	-153.9843	
-110.0000	-65.5131	-154.7738	
-105.0000	-64.3680	-153.4624	
-100.0000	-73.0071	-154.6510	
-95.0000	-68.6436	-125.5116	
-90.0000	-68.7755	-111.0679	
-85.0000	-68.3747	-94.6452	
-80.0000	-66.0438	-119.2213	
-75.0000	-68.1563	-91.4044	
-70.0000	-69.5295	-105.9970	
-65.0000	-68.5062	-83.6306	
-60.0000	-68.5915	-73.9001	
-55.0000	-67.3287	-75.1201	
-50.0000	-66.7583	-74.5834	
-45.0000	-68.5167	-76.5334	
-40.0000	-66.9017	-57.8283	
-35.0000	-66.7194	-62.6777	
-30.0000	-67.0788	-48.0943	
-25.0000	-64.9215	-46.2887	
-20.0000	-64.9971	-53.5981	
-15.0000	-66.4872	-51.6488	
-10.0000	-66.9585	-41.5934	
-5.0000	-66.5172	-33.7399	
0.0000	-66.4025	-34.3414	
5.0000	-66.8839	-39.1937	
10.0000	-67.5878	-51.8848	
15.0000	-66.3940	-66.1259	
20.0000	-64.4432	-66.8581	
25.0000	-64.8532	-57.1210	
30.0000	-66.8757	-59.6559	
35.0000	-66.6255	-76.2384	
40.0000	-66.9579	-75.6712	
45.0000	-66.1439	-92.4429	
50.0000	-66.4489	-78.3083	
55.0000	-69.4720	-107.5543	
60.0000	-65.3892	-101.3775	
65.0000	-67.3018	-104.2376	
70.0000	-67.5884	-112.6432	
75.0000	-65.8453	-121.7716	
80.0000	-66.3969	-125.5495	
85.0000	-68.0313	-146.4604	
90.0000	-65.1829	-133.2087	
95.0000	-65.8976	-153.8302	
100.0000	-65.2877	-177.0749	
105.0000	-66.9581	-146.8972	
110.0000	-63.5509	-176.6051	
115.0000	-65.6146	161.9372	
120.0000	-65.0393	164.9471	
125.0000	-64.0420	163.6817	
130.0000	-64.8263	139.8166	
135.0000	-64.9570	144.1554	
140.0000	-63.7960	123.2642	
145.0000	-63.8247	121.2141	
150.0000	-61.5869	110.1912	
155.0000	-60.0714	123.4785	
160.0000	-62.0564	139.5868	
165.0000	-66.1426	131.7757	
170.0000	-65.6994	97.6909	
175.0000	-63.0839	90.8095	
180.0000	-62.1804	91.1336	
			
			
			
[Side Lobes Table]
			
No.	Rel Ampl	Azimuth  [deg]	Absolute Ampl
1L	-3.72	140.00	-63.80
2L	-3.97	125.00	-64.04
3L	-3.48	110.00	-63.55
		 	
File Name:	UWB_patch_stairs_V2.rff		
			
		Phase	
Frequency	3.700 G	 [GHz]	
Polarizat.	0.00000	[deg]	
Roll	179.00000	[deg]
Ch.	Channel1		
Beam			
Switch			
Dir	0.00	dBi	
Azimuth  [deg]	Amplitude (dB)	Phase [Deg]	
-180.0000	-62.9847	-118.3718	
-175.0000	-64.6837	-120.8982	
-170.0000	-69.1075	-103.7743	
-165.0000	-66.3034	-64.2067	
-160.0000	-63.1236	-73.8727	
-155.0000	-64.6973	-79.5017	
-150.0000	-64.6188	-68.5612	
-145.0000	-65.1339	-70.6085	
-140.0000	-66.9196	-61.6581	
-135.0000	-66.7906	-60.8471	
-130.0000	-74.5051	-19.3424	
-125.0000	-67.4790	-17.3659	
-120.0000	-67.6904	-4.7926	
-115.0000	-68.7653	1.1840	
-110.0000	-66.6992	1.2790	
-105.0000	-74.4596	-7.1137	
-100.0000	-71.7490	26.2732	
-95.0000	-71.1767	37.9501	
-90.0000	-69.6861	64.4836	
-85.0000	-72.0350	40.5611	
-80.0000	-70.2107	47.0689	
-75.0000	-71.9388	69.3411	
-70.0000	-72.6869	71.2284	
-65.0000	-70.9761	85.1818	
-60.0000	-68.8721	72.3498	
-55.0000	-70.5833	92.3825	
-50.0000	-69.0057	69.0060	
-45.0000	-70.8438	107.8257	
-40.0000	-67.7870	91.2964	
-35.0000	-69.8048	111.0334	
-30.0000	-66.0164	113.8163	
-25.0000	-66.0468	101.5047	
-20.0000	-67.4821	104.5866	
-15.0000	-67.8099	113.5019	
-10.0000	-67.6378	119.5870	
-5.0000	-67.6079	122.5962	
0.0000	-67.8990	120.8437	
5.0000	-67.8059	115.1637	
10.0000	-67.0646	107.3599	
15.0000	-66.4084	106.1143	
20.0000	-66.3571	103.7296	
25.0000	-66.5218	103.5286	
30.0000	-67.4319	105.0409	
35.0000	-69.3253	83.4898	
40.0000	-66.2178	82.1241	
45.0000	-69.5328	93.0072	
50.0000	-67.8975	67.8284	
55.0000	-70.6556	68.1291	
60.0000	-66.6790	70.9658	
65.0000	-72.6922	40.4646	
70.0000	-67.8179	58.2582	
75.0000	-68.8351	50.8097	
80.0000	-69.4931	28.7402	
85.0000	-68.9597	29.1717	
90.0000	-70.7096	22.4417	
95.0000	-66.4837	14.3127	
100.0000	-67.9404	2.4097	
105.0000	-67.3370	-24.0487	
110.0000	-70.5963	-13.4359	
115.0000	-66.1463	-21.8152	
120.0000	-66.8020	-45.5121	
125.0000	-66.4138	-50.8980	
130.0000	-66.8280	-56.6326	
135.0000	-65.0445	-63.7799	
140.0000	-67.3350	-73.0896	
145.0000	-65.4946	-83.4478	
150.0000	-65.4090	-99.4652	
155.0000	-61.8745	-99.2804	
160.0000	-61.9788	-79.8047	
165.0000	-65.4952	-79.0392	
170.0000	-66.0457	-107.2834	
175.0000	-63.5804	-117.0883	
180.0000	-63.0036	-118.4865	
			
			
			
[Side Lobes Table]
			
No.	Rel Ampl	Azimuth  [deg]	Absolute Ampl
1L	-3.17	135.00	-65.04
2L	-4.54	125.00	-66.41
3L	-4.27	115.00	-66.15
		 	
File Name:	UWB_patch_stairs_V2.rff		
			
		Phase	
Frequency	4.000 G	 [GHz]	
Polarizat.	0.00000	[deg]	
Roll	179.00000	[deg]
Ch.	Channel1		
Beam			
Switch			
Dir	0.00	dBi	
Azimuth  [deg]	Amplitude (dB)	Phase [Deg]	
-180.0000	-64.6232	34.4562	
-175.0000	-67.3297	36.9959	
-170.0000	-69.8963	77.6650	
-165.0000	-65.1510	90.7855	
-160.0000	-64.6068	77.0185	
-155.0000	-65.9693	84.7668	
-150.0000	-65.3144	79.6423	
-145.0000	-68.4687	88.0917	
-140.0000	-68.4358	91.6436	
-135.0000	-73.0337	103.2266	
-130.0000	-71.3483	147.8279	
-125.0000	-69.3945	148.4767	
-120.0000	-71.3606	164.2643	
-115.0000	-70.1470	164.9985	
-110.0000	-73.3304	140.6269	
-105.0000	-72.3592	-162.4661	
-100.0000	-74.5882	-150.8959	
-95.0000	-72.8347	-139.2544	
-90.0000	-71.7786	-153.7717	
-85.0000	-73.3162	-138.5652	
-80.0000	-76.4712	-135.2891	
-75.0000	-74.2166	-129.4547	
-70.0000	-71.0215	-113.8546	
-65.0000	-74.3852	-118.0601	
-60.0000	-70.6973	-127.6573	
-55.0000	-73.0204	-106.2700	
-50.0000	-70.7251	-104.9806	
-45.0000	-70.0023	-106.6758	
-40.0000	-70.2788	-93.4842	
-35.0000	-67.8298	-93.1470	
-30.0000	-67.9927	-94.5376	
-25.0000	-67.8059	-88.1363	
-20.0000	-67.9189	-83.0464	
-15.0000	-67.4783	-70.7971	
-10.0000	-65.5135	-64.1990	
-5.0000	-64.4931	-65.0397	
0.0000	-64.2454	-65.5925	
5.0000	-64.6773	-65.1620	
10.0000	-66.1669	-64.6620	
15.0000	-68.5334	-79.0505	
20.0000	-68.1030	-97.3727	
25.0000	-67.2194	-96.0325	
30.0000	-68.8033	-104.3463	
35.0000	-67.1509	-111.2065	
40.0000	-69.1966	-105.0504	
45.0000	-69.5014	-121.1006	
50.0000	-70.1693	-124.9301	
55.0000	-69.4781	-128.8167	
60.0000	-71.4258	-128.3716	
65.0000	-69.9787	-155.0125	
70.0000	-71.1196	-127.6516	
75.0000	-69.1205	-159.2288	
80.0000	-69.7517	-167.9368	
85.0000	-73.1168	177.6698	
90.0000	-70.4134	-171.0371	
95.0000	-70.3554	170.8283	
100.0000	-68.4537	162.4959	
105.0000	-69.6471	159.7061	
110.0000	-67.0053	142.9290	
115.0000	-68.3955	113.8793	
120.0000	-70.0592	122.2620	
125.0000	-67.6870	114.3261	
130.0000	-67.1500	100.5821	
135.0000	-67.2549	80.6863	
140.0000	-66.3759	89.9867	
145.0000	-67.0429	72.6344	
150.0000	-67.4379	67.0027	
155.0000	-64.8799	49.8070	
160.0000	-63.2992	64.9548	
165.0000	-65.9061	69.2137	
170.0000	-66.4925	46.6857	
175.0000	-64.5353	36.0244	
180.0000	-64.6569	34.6850	
			
			
			
[Side Lobes Table]
			
No.	Rel Ampl	Azimuth  [deg]	Absolute Ampl
1L	-3.08	140.00	-66.38
2L	-3.85	130.00	-67.15
3L	-3.71	110.00	-67.01
1R	-1.24	175.00	-64.54
		 	
File Name:	UWB_patch_stairs_V2.rff		
			
		Phase	
Frequency	4.300 G	 [GHz]	
Polarizat.	0.00000	[deg]	
Roll	179.00000	[deg]
Ch.	Channel1		
Beam			
Switch			
Dir	0.00	dBi	
Azimuth  [deg]	Amplitude (dB)	Phase [Deg]	
-180.0000	-64.5438	-179.3654	
-175.0000	-67.3486	-172.7746	
-170.0000	-69.2568	-131.3590	
-165.0000	-65.0361	-123.6278	
-160.0000	-65.8612	-138.5324	
-155.0000	-66.3852	-125.5298	
-150.0000	-67.4523	-141.2798	
-145.0000	-70.3174	-110.3687	
-140.0000	-73.0369	-110.5327	
-135.0000	-73.8841	-82.9849	
-130.0000	-70.1806	-50.6662	
-125.0000	-72.7321	-50.4209	
-120.0000	-72.2099	-38.5413	
-115.0000	-70.3266	-41.8902	
-110.0000	-72.8149	11.1817	
-105.0000	-77.0215	24.9633	
-100.0000	-77.8301	21.0479	
-95.0000	-72.5001	6.3077	
-90.0000	-73.4150	28.5357	
-85.0000	-75.4751	51.9634	
-80.0000	-78.4938	61.9888	
-75.0000	-73.3703	39.9208	
-70.0000	-73.2940	51.8543	
-65.0000	-74.6140	58.8263	
-60.0000	-74.3119	57.8327	
-55.0000	-72.1948	60.3340	
-50.0000	-70.3074	66.8328	
-45.0000	-71.8597	66.2940	
-40.0000	-68.7064	76.5750	
-35.0000	-68.9059	77.5117	
-30.0000	-67.2275	79.9043	
-25.0000	-67.2529	76.7567	
-20.0000	-67.3414	86.0089	
-15.0000	-66.3839	91.9281	
-10.0000	-65.5522	93.2730	
-5.0000	-65.1067	91.7561	
0.0000	-64.8929	89.9462	
5.0000	-64.9526	88.1435	
10.0000	-65.2961	85.4038	
15.0000	-66.0095	82.4708	
20.0000	-67.0424	75.2968	
25.0000	-66.7876	66.1068	
30.0000	-66.6137	70.0330	
35.0000	-68.5753	59.9427	
40.0000	-68.9668	56.0759	
45.0000	-69.4208	35.2383	
50.0000	-68.5896	46.8499	
55.0000	-70.6698	32.7235	
60.0000	-70.3185	18.5959	
65.0000	-71.4883	22.3560	
70.0000	-74.1499	14.3729	
75.0000	-69.1878	18.4972	
80.0000	-70.2306	-14.0967	
85.0000	-71.4632	-25.9185	
90.0000	-74.4146	-41.2875	
95.0000	-70.2434	-19.5399	
100.0000	-70.3140	-45.0774	
105.0000	-70.2555	-63.1660	
110.0000	-73.3292	-67.9610	
115.0000	-70.7512	-61.8050	
120.0000	-67.0329	-83.5077	
125.0000	-67.4742	-109.7103	
130.0000	-68.9004	-115.7662	
135.0000	-69.6991	-114.7034	
140.0000	-66.2509	-130.2070	
145.0000	-67.8712	-139.8971	
150.0000	-66.6054	-131.7068	
155.0000	-68.2853	-158.3584	
160.0000	-64.4651	-154.1223	
165.0000	-66.8245	-147.1807	
170.0000	-67.2387	-174.2470	
175.0000	-64.5083	178.1681	
180.0000	-64.4968	-179.9615	
			
			
			
[Side Lobes Table]
			
No.	Rel Ampl	Azimuth  [deg]	Absolute Ampl
1L	-2.14	150.00	-66.61
2L	-1.79	140.00	-66.25
3L	-2.57	120.00	-67.03
		 	
File Name:	UWB_patch_stairs_V2.rff		
			
		Phase	
Frequency	4.500 G	 [GHz]	
Polarizat.	0.00000	[deg]	
Roll	179.00000	[deg]
Ch.	Channel1		
Beam			
Switch			
Dir	0.00	dBi	
Azimuth  [deg]	Amplitude (dB)	Phase [Deg]	
-180.0000	-63.3962	155.3786	
-175.0000	-66.1754	163.0696	
-170.0000	-67.8001	-157.7035	
-165.0000	-64.2481	-150.1216	
-160.0000	-65.0347	-159.1202	
-155.0000	-65.3018	-151.6690	
-150.0000	-68.9084	-155.6284	
-145.0000	-68.8458	-132.5837	
-140.0000	-71.1725	-110.9803	
-135.0000	-74.5559	-98.7640	
-130.0000	-67.8091	-80.9760	
-125.0000	-70.6009	-51.7599	
-120.0000	-71.8873	-46.5312	
-115.0000	-75.1996	-83.1435	
-110.0000	-72.1373	-42.1714	
-105.0000	-71.6655	-7.6803	
-100.0000	-70.0123	17.2714	
-95.0000	-76.5587	21.0299	
-90.0000	-76.8091	1.4539	
-85.0000	-74.5224	28.1552	
-80.0000	-72.8945	46.0249	
-75.0000	-74.2661	38.8421	
-70.0000	-73.7285	28.2467	
-65.0000	-72.4704	50.0863	
-60.0000	-73.6672	48.1619	
-55.0000	-68.8089	49.1568	
-50.0000	-70.9015	62.1079	
-45.0000	-68.2392	53.1921	
-40.0000	-68.5731	62.9526	
-35.0000	-67.8037	71.1743	
-30.0000	-65.4321	76.4404	
-25.0000	-64.7134	66.0172	
-20.0000	-65.8263	68.2669	
-15.0000	-65.7241	79.3534	
-10.0000	-64.7031	85.8684	
-5.0000	-64.0703	86.0368	
0.0000	-63.7484	85.3804	
5.0000	-63.8986	82.9025	
10.0000	-64.6983	79.6576	
15.0000	-65.6356	70.7289	
20.0000	-65.4957	56.7693	
25.0000	-64.3384	57.3319	
30.0000	-66.2192	61.5850	
35.0000	-67.3582	41.7563	
40.0000	-66.7487	38.3474	
45.0000	-67.2155	39.5244	
50.0000	-70.4467	13.0154	
55.0000	-68.3753	26.3797	
60.0000	-69.7701	8.0324	
65.0000	-71.2562	-3.8794	
70.0000	-71.0086	13.5270	
75.0000	-71.6133	-16.4402	
80.0000	-72.6594	-0.0348	
85.0000	-71.9785	-15.6026	
90.0000	-69.4057	-22.7550	
95.0000	-68.6438	-64.1548	
100.0000	-72.3479	-66.8939	
105.0000	-72.0224	-67.0525	
110.0000	-68.9764	-71.4885	
115.0000	-67.1125	-93.3761	
120.0000	-67.3001	-127.5680	
125.0000	-70.2881	-140.7144	
130.0000	-69.2524	-126.7891	
135.0000	-66.5788	-135.4785	
140.0000	-66.9996	-161.1512	
145.0000	-66.2138	-159.3061	
150.0000	-65.0963	-157.1938	
155.0000	-67.2585	-169.3212	
160.0000	-64.3784	-175.2197	
165.0000	-66.1393	-169.5012	
170.0000	-66.4732	161.7821	
175.0000	-63.5964	153.3036	
180.0000	-63.3799	155.2061	
			
			
			
[Side Lobes Table]
			
No.	Rel Ampl	Azimuth  [deg]	Absolute Ampl
1L	-1.00	160.00	-64.38
2L	-1.72	150.00	-65.10
3L	-3.20	135.00	-66.58
		 	
File Name:	UWB_patch_stairs_V2.rff		
			
		Phase	
Frequency	4.800 G	 [GHz]	
Polarizat.	0.00000	[deg]
Roll	179.00000	[deg]	
Ch.	Channel1		
Beam			
Switch			
Dir	0.00	dBi	
Azimuth  [deg]	Amplitude (dB)	Phase [Deg]	
-180.0000	-65.1702	-62.7823	
-175.0000	-67.6875	-52.6487	
-170.0000	-68.3325	-19.9155	
-165.0000	-66.3506	-17.0780	
-160.0000	-68.1414	-11.1460	
-155.0000	-66.9880	-10.6290	
-150.0000	-72.3558	5.8273	
-145.0000	-71.4713	18.5744	
-140.0000	-70.5499	31.7015	
-135.0000	-72.5429	84.8111	
-130.0000	-74.8507	67.9231	
-125.0000	-72.4294	82.7897	
-120.0000	-69.3025	96.5973	
-115.0000	-71.7252	137.4525	
-110.0000	-73.5421	163.7462	
-105.0000	-75.0443	-173.6622	
-100.0000	-76.0700	141.7453	
-95.0000	-74.2701	162.1758	
-90.0000	-74.3317	-177.7992	
-85.0000	-73.2335	-154.3017	
-80.0000	-74.7567	-152.7134	
-75.0000	-74.6734	-165.8912	
-70.0000	-72.9857	-154.5906	
-65.0000	-72.3145	-144.5172	
-60.0000	-72.1922	-148.8506	
-55.0000	-69.8946	-151.2445	
-50.0000	-70.3056	-135.1368	
-45.0000	-68.6378	-140.2692	
-40.0000	-68.5598	-128.5572	
-35.0000	-66.3237	-125.5118	
-30.0000	-66.4640	-131.2446	
-25.0000	-66.5976	-121.3807	
-20.0000	-65.1742	-114.8377	
-15.0000	-64.3482	-115.1589	
-10.0000	-63.9365	-113.4726	
-5.0000	-63.5226	-114.1254	
0.0000	-63.5390	-115.5111	
5.0000	-63.7654	-117.9742	
10.0000	-64.3004	-123.8644	
15.0000	-64.4832	-129.7010	
20.0000	-64.6892	-132.4809	
25.0000	-65.7826	-137.2639	
30.0000	-66.2501	-145.6344	
35.0000	-67.1973	-149.0410	
40.0000	-67.4476	-164.4490	
45.0000	-68.8372	-160.3776	
50.0000	-69.2575	178.3397	
55.0000	-70.3757	-168.4021	
60.0000	-70.4453	159.3065	
65.0000	-73.2322	166.7371	
70.0000	-74.4614	164.8255	
75.0000	-71.7753	164.0563	
80.0000	-73.6452	136.0729	
85.0000	-75.1506	145.4089	
90.0000	-75.4056	132.4349	
95.0000	-74.0278	147.5058	
100.0000	-71.4330	109.3063	
105.0000	-71.7335	82.3537	
110.0000	-73.0060	55.0733	
115.0000	-76.8758	50.3375	
120.0000	-76.8692	60.6685	
125.0000	-69.6809	50.4818	
130.0000	-68.1047	16.1906	
135.0000	-69.0165	-4.6940	
140.0000	-70.6547	-0.3998	
145.0000	-68.2111	-18.1685	
150.0000	-66.9935	-24.1590	
155.0000	-67.4312	-17.1659	
160.0000	-67.1259	-31.8823	
165.0000	-67.5305	-29.5238	
170.0000	-68.1464	-52.5488	
175.0000	-65.5633	-64.4738	
180.0000	-65.2372	-63.0822	
			
			
			
[Side Lobes Table]
			
No.	Rel Ampl	Azimuth  [deg]	Absolute Ampl
1L	-2.80	-35.00	-66.32
2L	-6.37	-55.00	-69.89
3L	-9.71	-85.00	-73.23
1R	-8.25	75.00	-71.78
2R	-7.91	100.00	-71.43
3R	-4.58	130.00	-68.10
		 	
File Name:	UWB_patch_stairs_V2.rff		
			
		Phase	
Frequency	5.000 G	 [GHz]	
Polarizat.	0.00000	[deg]	
Roll	179.00000	[deg]
Ch.	Channel1		
Beam			
Switch			
Dir	0.00	dBi	
Azimuth  [deg]	Amplitude (dB)	Phase [Deg]	
-180.0000	-66.2930	-84.0096	
-175.0000	-69.1652	-75.6368	
-170.0000	-70.2261	-41.8558	
-165.0000	-68.2969	-38.7344	
-160.0000	-70.0829	-24.5666	
-155.0000	-68.6355	-30.4799	
-150.0000	-72.2605	0.2316	
-145.0000	-73.5053	4.9894	
-140.0000	-72.1832	-3.3756	
-135.0000	-71.1457	58.4832	
-130.0000	-76.3921	77.3124	
-125.0000	-75.2850	103.0778	
-120.0000	-77.3014	79.6136	
-115.0000	-74.8936	110.7791	
-110.0000	-73.9136	138.7628	
-105.0000	-71.2560	167.8489	
-100.0000	-72.5882	-173.9500	
-95.0000	-74.5238	-164.4724	
-90.0000	-74.9731	-157.2350	
-85.0000	-74.0765	-159.4190	
-80.0000	-72.9932	-156.2262	
-75.0000	-73.9921	-148.7865	
-70.0000	-75.1290	-146.4092	
-65.0000	-72.7441	-152.3142	
-60.0000	-71.6596	-147.3410	
-55.0000	-72.1939	-142.7082	
-50.0000	-71.1775	-145.8307	
-45.0000	-69.0000	-134.6103	
-40.0000	-68.7291	-137.5035	
-35.0000	-68.2525	-130.2323	
-30.0000	-66.8800	-125.9795	
-25.0000	-66.1755	-124.9230	
-20.0000	-65.5344	-124.6688	
-15.0000	-65.9165	-124.8266	
-10.0000	-66.3528	-118.8254	
-5.0000	-65.9037	-113.9132	
0.0000	-65.7605	-113.9283	
5.0000	-65.9216	-119.9324	
10.0000	-65.7567	-131.0816	
15.0000	-65.2431	-137.2298	
20.0000	-65.3063	-139.8837	
25.0000	-66.7879	-141.7008	
30.0000	-67.3285	-156.0791	
35.0000	-67.7495	-159.4073	
40.0000	-68.5517	-167.8132	
45.0000	-69.4894	-176.7777	
50.0000	-70.4077	-175.8659	
55.0000	-71.1522	157.9790	
60.0000	-72.8665	173.2409	
65.0000	-72.3996	149.8047	
70.0000	-73.6048	152.1745	
75.0000	-75.3205	126.6386	
80.0000	-76.7848	146.6019	
85.0000	-74.6003	131.4702	
90.0000	-74.9304	117.7535	
95.0000	-72.9123	99.3231	
100.0000	-74.4303	63.3822	
105.0000	-76.4239	68.5222	
110.0000	-75.7818	69.7764	
115.0000	-73.3142	63.2052	
120.0000	-71.1636	44.8019	
125.0000	-69.5155	18.2004	
130.0000	-71.4410	-16.4893	
135.0000	-72.6086	-19.8019	
140.0000	-70.1491	-5.2034	
145.0000	-69.6945	-33.4752	
150.0000	-68.6178	-40.8892	
155.0000	-68.3000	-34.3720	
160.0000	-68.3043	-50.0527	
165.0000	-68.4113	-47.1437	
170.0000	-69.6163	-71.6759	
175.0000	-66.8099	-85.5713	
180.0000	-66.3579	-83.8837	
			
			
			
[Side Lobes Table]
			
No.	Rel Ampl	Azimuth  [deg]	Absolute Ampl
1L	-0.52	0.00	-65.76
2L	-0.29	-20.00	-65.53
3L	-6.42	-60.00	-71.66
1R	-7.16	65.00	-72.40
2R	-9.36	85.00	-74.60
3R	-7.67	95.00	-72.91
		 	
File Name:	UWB_patch_stairs_V2.rff		
			
		Phase	
Frequency	5.300 G	 [GHz]	
Polarizat.	0.00000	[deg]	
Roll	179.00000	[deg]
Ch.	Channel1		
Beam			
Switch			
Dir	0.00	dBi	
Azimuth  [deg]	Amplitude (dB)	Phase [Deg]	
-180.0000	-67.1135	58.6650	
-175.0000	-70.5664	67.2003	
-170.0000	-71.7623	109.5761	
-165.0000	-69.9683	113.9268	
-160.0000	-70.6297	131.6483	
-155.0000	-70.7717	116.7269	
-150.0000	-72.1905	155.4615	
-145.0000	-73.9225	174.2744	
-140.0000	-78.4840	151.5153	
-135.0000	-72.3780	-163.9628	
-130.0000	-73.9532	-125.9447	
-125.0000	-72.2057	-104.9506	
-120.0000	-74.3681	-76.5491	
-115.0000	-75.8572	-58.6426	
-110.0000	-76.1312	-32.6343	
-105.0000	-76.0218	-42.1839	
-100.0000	-76.0016	-28.6581	
-95.0000	-75.6715	-10.0750	
-90.0000	-72.3610	4.1564	
-85.0000	-71.9770	8.6456	
-80.0000	-73.7456	14.7875	
-75.0000	-74.3470	27.3229	
-70.0000	-74.5457	20.9375	
-65.0000	-72.0981	12.7326	
-60.0000	-71.4669	22.0260	
-55.0000	-70.8676	30.1761	
-50.0000	-71.0298	33.1873	
-45.0000	-68.6998	29.8632	
-40.0000	-69.0012	35.8285	
-35.0000	-67.0850	42.1589	
-30.0000	-67.2464	39.2119	
-25.0000	-66.1581	51.0993	
-20.0000	-64.6717	45.6967	
-15.0000	-65.1732	44.3199	
-10.0000	-65.4353	50.5212	
-5.0000	-65.0270	53.8472	
0.0000	-65.0908	52.9646	
5.0000	-65.6466	48.2708	
10.0000	-66.0754	38.2117	
15.0000	-65.4904	29.4067	
20.0000	-65.6274	28.2177	
25.0000	-66.9215	20.8802	
30.0000	-66.6643	17.5955	
35.0000	-68.4304	13.8005	
40.0000	-69.1222	-0.1747	
45.0000	-69.6166	-1.3158	
50.0000	-71.4398	-14.3214	
55.0000	-71.6995	-21.6861	
60.0000	-75.0998	-22.2198	
65.0000	-72.7557	-17.4970	
70.0000	-74.9653	-32.0761	
75.0000	-74.4056	-34.6135	
80.0000	-75.7749	-61.1859	
85.0000	-78.2475	-52.4677	
90.0000	-75.8469	-59.0823	
95.0000	-76.1586	-65.8007	
100.0000	-73.8621	-67.7995	
105.0000	-73.4336	-92.4065	
110.0000	-74.1112	-121.3899	
115.0000	-75.3831	-153.5882	
120.0000	-75.1263	-179.0122	
125.0000	-76.2731	149.1145	
130.0000	-78.4099	148.9525	
135.0000	-74.2700	151.4220	
140.0000	-69.8635	139.4031	
145.0000	-71.3357	110.8239	
150.0000	-70.4186	103.9741	
155.0000	-69.0704	110.7425	
160.0000	-69.4903	96.5279	
165.0000	-69.6025	100.8166	
170.0000	-70.7321	73.0222	
175.0000	-67.5219	57.6995	
180.0000	-67.1606	58.3439	
			
			
			
[Side Lobes Table]
			
No.	Rel Ampl	Azimuth  [deg]	Absolute Ampl
1L	-2.41	-35.00	-67.08
2L	-4.03	-45.00	-68.70
3L	-6.20	-55.00	-70.87
1R	-0.36	-5.00	-65.03
2R	-0.82	15.00	-65.49
3R	-1.99	30.00	-66.66
		 	
File Name:	UWB_patch_stairs_V2.rff		
			
		Phase	
Frequency	6.000 G	 [GHz]	
Polarizat.	0.00000	[deg]	
Roll	179.00000	[deg]
Ch.	Channel1		
Beam			
Switch			
Dir	0.00	dBi	
Azimuth  [deg]	Amplitude (dB)	Phase [Deg]	
-180.0000	-70.7295	154.6755	
-175.0000	-76.3993	164.0276	
-170.0000	-75.8758	-130.5902	
-165.0000	-75.8296	-135.9347	
-160.0000	-73.7405	-115.9326	
-155.0000	-80.0199	-104.5110	
-150.0000	-78.8819	-108.6294	
-145.0000	-73.9535	-79.1479	
-140.0000	-73.7707	-23.6669	
-135.0000	-77.2064	2.7251	
-130.0000	-76.2562	29.3018	
-125.0000	-77.4942	44.4666	
-120.0000	-75.0993	66.8388	
-115.0000	-74.5166	89.0217	
-110.0000	-73.0719	100.9860	
-105.0000	-71.8434	113.4573	
-100.0000	-72.4668	122.9427	
-95.0000	-73.6856	138.3959	
-90.0000	-73.0257	149.2834	
-85.0000	-72.8328	161.4453	
-80.0000	-73.1878	170.9006	
-75.0000	-73.7923	-179.0537	
-70.0000	-73.4547	-173.9910	
-65.0000	-72.6942	-163.5417	
-60.0000	-72.4742	-162.1313	
-55.0000	-72.5693	-156.8960	
-50.0000	-73.2717	-150.5384	
-45.0000	-72.1136	-163.9500	
-40.0000	-71.4810	-150.6934	
-35.0000	-70.8219	-151.0052	
-30.0000	-70.2880	-149.3316	
-25.0000	-69.4229	-146.5929	
-20.0000	-68.4971	-146.0133	
-15.0000	-68.2462	-148.7735	
-10.0000	-68.2402	-149.3087	
-5.0000	-68.4551	-150.1895	
0.0000	-68.5264	-152.1791	
5.0000	-68.6618	-155.0994	
10.0000	-68.5215	-159.8726	
15.0000	-68.6040	-161.8259	
20.0000	-68.9773	-163.1368	
25.0000	-70.5157	-165.4592	
30.0000	-70.9275	-172.7290	
35.0000	-72.4466	-179.7556	
40.0000	-73.1789	172.9149	
45.0000	-72.2501	172.6644	
50.0000	-73.4765	156.3837	
55.0000	-75.1019	159.3260	
60.0000	-74.7513	156.5462	
65.0000	-74.4783	156.3846	
70.0000	-73.2741	152.7211	
75.0000	-73.4799	140.3085	
80.0000	-73.0620	136.6927	
85.0000	-72.7788	123.1558	
90.0000	-72.5143	100.5131	
95.0000	-72.9282	90.7136	
100.0000	-74.3520	78.4005	
105.0000	-74.1632	52.4067	
110.0000	-73.3301	38.5998	
115.0000	-73.5034	16.6596	
120.0000	-74.6667	-8.3677	
125.0000	-74.7914	-31.1011	
130.0000	-75.5784	-63.3637	
135.0000	-76.3036	-106.1111	
140.0000	-79.1125	-120.8204	
145.0000	-77.3904	-88.2923	
150.0000	-73.5293	-129.9055	
155.0000	-72.7511	-137.6995	
160.0000	-76.4337	-132.6682	
165.0000	-74.4121	-152.0574	
170.0000	-78.4380	-176.7197	
175.0000	-71.6447	151.6423	
180.0000	-70.7305	155.5780	
			
			
			
[Side Lobes Table]
			
No.	Rel Ampl	Azimuth  [deg]	Absolute Ampl
1L	-4.23	-60.00	-72.47
2L	-4.59	-85.00	-72.83
3L	-3.60	-105.00	-71.84
1R	-0.28	10.00	-68.52
2R	-4.01	45.00	-72.25
3R	-5.03	70.00	-73.27
		 	
File Name:	UWB_patch_stairs_V2.rff		
			
		Phase	
Frequency	3.000 G	 [GHz]	
Polarizat.	90.00000	[deg]	
Roll	179.00000	[deg]
Ch.	Channel1		
Beam			
Switch			
Dir	0.00	dBi	
Azimuth  [deg]	Amplitude (dB)	Phase [Deg]	
-180.0000	-76.8618	-133.9381	
-175.0000	-76.7481	-148.5370	
-170.0000	-75.4576	-177.6221	
-165.0000	-74.1243	157.9651	
-160.0000	-74.1700	156.8510	
-155.0000	-70.6627	159.5924	
-150.0000	-68.4220	145.3277	
-145.0000	-69.0304	128.8361	
-140.0000	-70.0913	144.1330	
-135.0000	-67.6183	134.9508	
-130.0000	-71.9883	122.9637	
-125.0000	-74.6549	144.8351	
-120.0000	-71.9990	-143.0182	
-115.0000	-67.3557	-157.7561	
-110.0000	-64.1610	-168.0692	
-105.0000	-66.2421	175.4750	
-100.0000	-65.8566	178.3217	
-95.0000	-67.0695	-178.7509	
-90.0000	-69.6522	-165.2238	
-85.0000	-68.5276	-146.9522	
-80.0000	-66.7651	-135.5259	
-75.0000	-67.4883	-137.4892	
-70.0000	-66.4118	-138.7953	
-65.0000	-69.1523	-130.4685	
-60.0000	-67.6562	-127.4676	
-55.0000	-69.6501	-109.3327	
-50.0000	-67.1020	-108.1108	
-45.0000	-70.4721	-112.3204	
-40.0000	-70.5998	-91.2094	
-35.0000	-70.2495	-95.0051	
-30.0000	-71.4893	-95.0029	
-25.0000	-72.6447	-93.0680	
-20.0000	-74.7352	-86.1433	
-15.0000	-77.3927	-73.1381	
-10.0000	-79.9565	-49.6715	
-5.0000	-82.3644	-36.5527	
0.0000	-87.8744	-4.0552	
5.0000	-95.5997	102.8314	
10.0000	-89.9576	116.8424	
15.0000	-88.8976	79.7306	
20.0000	-80.9709	66.7170	
25.0000	-76.3108	61.6639	
30.0000	-74.6455	65.9074	
35.0000	-72.7720	59.9384	
40.0000	-71.4384	60.3962	
45.0000	-70.7453	61.7654	
50.0000	-71.8301	59.2814	
55.0000	-70.9161	40.0856	
60.0000	-68.9378	36.9123	
65.0000	-68.8560	38.3825	
70.0000	-69.0690	30.7427	
75.0000	-68.2119	17.2338	
80.0000	-67.7238	32.6524	
85.0000	-69.2157	7.4494	
90.0000	-67.4652	5.7994	
95.0000	-68.1043	11.2469	
100.0000	-68.7499	-13.8855	
105.0000	-67.7206	-10.0983	
110.0000	-68.5384	2.8579	
115.0000	-71.8370	-20.1861	
120.0000	-68.5511	-33.8074	
125.0000	-68.1741	-11.7775	
130.0000	-73.4227	-18.5740	
135.0000	-75.9846	-24.6720	
140.0000	-75.0965	-96.4961	
145.0000	-68.9952	-81.5436	
150.0000	-68.6130	-65.4952	
155.0000	-68.5937	-59.3956	
160.0000	-69.8356	-47.9209	
165.0000	-73.9424	-47.1240	
170.0000	-78.6991	-78.8517	
175.0000	-77.7617	-112.8576	
180.0000	-77.1918	-132.5595	
			
			
			
[Side Lobes Table]
			
No.	Rel Ampl	Azimuth  [deg]	Absolute Ampl
1L	-3.46	-135.00	-67.62
2L	-4.26	-150.00	-68.42
1R	-1.70	-100.00	-65.86
2R	-2.60	-80.00	-66.77
3R	-2.25	-70.00	-66.41
		 	
File Name:	UWB_patch_stairs_V2.rff		
			
		Phase	
Frequency	3.400 G	 [GHz]	
Polarizat.	90.00000	[deg]	
Roll	179.00000	[deg]
Ch.	Channel1		
Beam			
Switch			
Dir	0.00	dBi	
Azimuth  [deg]	Amplitude (dB)	Phase [Deg]	
-180.0000	-77.9833	169.9196	
-175.0000	-77.8189	134.8759	
-170.0000	-76.0763	95.3748	
-165.0000	-76.8153	70.7015	
-160.0000	-76.9081	93.4318	
-155.0000	-70.7564	86.0653	
-150.0000	-70.1053	52.4782	
-145.0000	-74.4020	47.5058	
-140.0000	-73.2454	64.0340	
-135.0000	-78.6639	55.9758	
-130.0000	-76.9060	96.4495	
-125.0000	-73.7687	159.2863	
-120.0000	-69.2898	145.1788	
-115.0000	-65.8030	124.1785	
-110.0000	-70.8257	120.8543	
-105.0000	-69.0453	126.3546	
-100.0000	-68.7579	135.8595	
-95.0000	-72.2685	153.4737	
-90.0000	-69.0703	168.5446	
-85.0000	-68.9769	170.1526	
-80.0000	-68.9223	170.0429	
-75.0000	-70.3630	173.4446	
-70.0000	-71.8467	-178.0720	
-65.0000	-70.6685	-165.5842	
-60.0000	-70.7249	-158.2897	
-55.0000	-70.5881	-150.6229	
-50.0000	-70.4413	-149.5671	
-45.0000	-72.1766	-150.8224	
-40.0000	-73.5547	-136.4074	
-35.0000	-73.2735	-123.7979	
-30.0000	-72.6603	-125.8268	
-25.0000	-73.4884	-129.8694	
-20.0000	-76.2188	-133.1210	
-15.0000	-79.8796	-127.0113	
-10.0000	-81.9696	-117.9407	
-5.0000	-84.9421	-102.7090	
0.0000	-93.0575	-53.0746	
5.0000	-91.1663	57.0768	
10.0000	-84.0300	74.1142	
15.0000	-83.8198	74.4868	
20.0000	-81.8452	30.7834	
25.0000	-77.4174	34.3713	
30.0000	-77.3147	39.8867	
35.0000	-76.1675	13.3441	
40.0000	-72.8876	22.1857	
45.0000	-73.6030	16.8544	
50.0000	-73.1390	16.7230	
55.0000	-71.2803	-10.4688	
60.0000	-70.9895	-0.0161	
65.0000	-70.9423	-8.1496	
70.0000	-70.7679	-26.4790	
75.0000	-69.5685	-10.8934	
80.0000	-69.7536	-33.6544	
85.0000	-69.7512	-40.6143	
90.0000	-68.9972	-34.7552	
95.0000	-68.6582	-56.7359	
100.0000	-68.2084	-50.2163	
105.0000	-71.7936	-60.1514	
110.0000	-68.4800	-71.7393	
115.0000	-68.5199	-59.3296	
120.0000	-71.2170	-77.9259	
125.0000	-73.5097	-84.4876	
130.0000	-70.5342	-82.4303	
135.0000	-74.0568	-94.8782	
140.0000	-75.5702	-79.8225	
145.0000	-77.0169	-141.7901	
150.0000	-73.7549	-129.8637	
155.0000	-74.2108	-142.7382	
160.0000	-73.0446	-139.4020	
165.0000	-75.3218	-132.6658	
170.0000	-78.8503	-147.8454	
175.0000	-79.0647	-171.1693	
180.0000	-78.1074	168.8750	
			
			
			
[Side Lobes Table]
			
No.	Rel Ampl	Azimuth  [deg]	Absolute Ampl
1L	-7.44	-140.00	-73.25
2L	-4.30	-150.00	-70.11
1R	-2.95	-100.00	-68.76
2R	-3.12	-80.00	-68.92
3R	-4.87	-65.00	-70.67
		 	
File Name:	UWB_patch_stairs_V2.rff		
			
		Phase	
Frequency	3.700 G	 [GHz]	
Polarizat.	90.00000	[deg]	
Roll	179.00000	[deg]
Ch.	Channel1		
Beam			
Switch			
Dir	0.00	dBi	
Azimuth  [deg]	Amplitude (dB)	Phase [Deg]	
-180.0000	-82.7441	-70.1250	
-175.0000	-81.3679	-111.6718	
-170.0000	-79.4355	-148.1520	
-165.0000	-82.0495	-159.9811	
-160.0000	-78.6180	-133.5127	
-155.0000	-75.6195	-159.1034	
-150.0000	-76.9924	-171.4042	
-145.0000	-81.1161	142.7418	
-140.0000	-84.7819	-112.8996	
-135.0000	-80.8807	-69.6258	
-130.0000	-81.8243	-51.2030	
-125.0000	-69.8267	-69.2450	
-120.0000	-70.4396	-69.5884	
-115.0000	-71.9314	-101.1053	
-110.0000	-71.6046	-82.0630	
-105.0000	-72.2783	-75.6971	
-100.0000	-75.8889	-50.9547	
-95.0000	-73.3709	-36.3839	
-90.0000	-72.0271	-48.1774	
-85.0000	-71.4695	-41.4875	
-80.0000	-73.7280	-33.7020	
-75.0000	-73.8500	-19.4569	
-70.0000	-72.1661	0.8087	
-65.0000	-74.2597	-7.2717	
-60.0000	-72.4029	-4.0745	
-55.0000	-75.8334	10.8638	
-50.0000	-73.9651	8.8426	
-45.0000	-75.9556	29.7734	
-40.0000	-74.3494	30.3641	
-35.0000	-75.8614	24.3216	
-30.0000	-78.2756	22.5988	
-25.0000	-79.5708	35.9109	
-20.0000	-79.1174	42.4264	
-15.0000	-80.5661	35.6365	
-10.0000	-84.4657	38.5720	
-5.0000	-93.9212	81.6686	
0.0000	-93.2131	175.3898	
5.0000	-86.5118	-136.5692	
10.0000	-83.4546	-129.6449	
15.0000	-81.6179	-134.5415	
20.0000	-80.8096	-147.6447	
25.0000	-80.1933	-152.3355	
30.0000	-78.4761	-171.2293	
35.0000	-75.7005	-172.3393	
40.0000	-75.0601	-165.4249	
45.0000	-77.4923	-178.9512	
50.0000	-74.2100	175.2625	
55.0000	-74.3147	163.4867	
60.0000	-74.0072	179.9134	
65.0000	-72.1299	135.9542	
70.0000	-73.8131	148.9929	
75.0000	-72.9102	139.0084	
80.0000	-70.5770	124.0633	
85.0000	-73.2102	123.8822	
90.0000	-71.7994	102.3654	
95.0000	-72.2666	112.8321	
100.0000	-70.6831	95.9147	
105.0000	-70.0055	91.3478	
110.0000	-73.0854	87.6483	
115.0000	-70.9873	86.6571	
120.0000	-71.1311	77.5285	
125.0000	-72.5070	91.0692	
130.0000	-74.2671	69.9772	
135.0000	-75.9355	63.4607	
140.0000	-77.5258	71.0251	
145.0000	-77.3886	28.9480	
150.0000	-77.4686	51.1052	
155.0000	-82.6816	4.8692	
160.0000	-77.8044	3.8080	
165.0000	-80.2977	20.7246	
170.0000	-85.9269	-23.1783	
175.0000	-83.4556	-52.5116	
180.0000	-82.1361	-71.1108	
			
			
			
[Side Lobes Table]
			
No.	Rel Ampl	Azimuth  [deg]	Absolute Ampl
1L	-11.05	-135.00	-80.88
2L	-5.79	-155.00	-75.62
1R	-1.78	-110.00	-71.60
2R	-1.64	-85.00	-71.47
3R	-2.34	-70.00	-72.17
		 	
File Name:	UWB_patch_stairs_V2.rff		
			
		Phase	
Frequency	4.000 G	 [GHz]	
Polarizat.	90.00000	[deg]	
Roll	179.00000	[deg]
Ch.	Channel1		
Beam			
Switch			
Dir	0.00	dBi	
Azimuth  [deg]	Amplitude (dB)	Phase [Deg]	
-180.0000	-90.4923	115.7368	
-175.0000	-95.3356	22.3010	
-170.0000	-93.8996	-36.0205	
-165.0000	-90.6322	49.5961	
-160.0000	-80.7642	26.9350	
-155.0000	-83.5547	-10.0808	
-150.0000	-88.3762	-8.6559	
-145.0000	-86.7246	104.1697	
-140.0000	-78.5846	82.8452	
-135.0000	-77.9991	78.3464	
-130.0000	-72.7191	108.6082	
-125.0000	-71.7220	83.7340	
-120.0000	-72.3168	65.1254	
-115.0000	-72.6066	82.4969	
-110.0000	-73.4655	86.4814	
-105.0000	-78.3102	106.9216	
-100.0000	-74.4004	121.3137	
-95.0000	-72.1931	113.4331	
-90.0000	-73.5339	123.9083	
-85.0000	-76.0161	121.0580	
-80.0000	-76.1208	139.6232	
-75.0000	-74.6705	142.0122	
-70.0000	-75.4438	144.8841	
-65.0000	-75.4707	153.6063	
-60.0000	-76.7740	166.4510	
-55.0000	-76.5439	173.3369	
-50.0000	-76.1865	-177.8258	
-45.0000	-78.5309	-174.2887	
-40.0000	-75.5834	-163.9845	
-35.0000	-78.6657	178.8275	
-30.0000	-81.1231	-143.3678	
-25.0000	-79.8763	-142.2002	
-20.0000	-80.0752	-153.0737	
-15.0000	-81.8430	-153.7467	
-10.0000	-84.3149	-160.6676	
-5.0000	-89.1093	-177.2911	
0.0000	-92.7141	155.2562	
5.0000	-98.1500	121.9363	
10.0000	-93.1417	20.1329	
15.0000	-86.2006	0.0070	
20.0000	-82.3353	7.2013	
25.0000	-80.8351	10.1922	
30.0000	-82.7415	14.1968	
35.0000	-78.5120	-7.9614	
40.0000	-79.3825	12.0955	
45.0000	-79.0604	-19.7778	
50.0000	-77.0187	-29.5484	
55.0000	-75.9744	-18.7006	
60.0000	-76.3538	-47.1202	
65.0000	-74.6025	-38.4773	
70.0000	-76.5998	-62.4452	
75.0000	-74.0894	-62.3518	
80.0000	-73.6754	-60.0325	
85.0000	-72.7401	-88.8383	
90.0000	-74.1347	-74.8726	
95.0000	-73.1342	-96.1456	
100.0000	-72.7964	-88.1889	
105.0000	-72.0912	-103.2531	
110.0000	-71.1659	-108.9582	
115.0000	-71.5528	-109.4818	
120.0000	-73.7261	-130.8239	
125.0000	-71.0012	-119.9171	
130.0000	-75.7621	-113.8903	
135.0000	-73.7936	-128.2538	
140.0000	-77.0837	-134.0943	
145.0000	-82.2344	-132.9089	
150.0000	-78.5163	173.2314	
155.0000	-76.6571	-171.3632	
160.0000	-78.2177	-156.1114	
165.0000	-84.0926	-152.8185	
170.0000	-90.2151	130.0076	
175.0000	-87.4930	106.9338	
180.0000	-90.8460	112.8282	
			
			
			
[Side Lobes Table]
			
No.	Rel Ampl	Azimuth  [deg]	Absolute Ampl
1L	-0.16	110.00	-71.17
2L	-1.74	85.00	-72.74
3L	-3.60	65.00	-74.60
1R	-2.79	135.00	-73.79
2R	-5.66	155.00	-76.66
3R	-16.49	175.00	-87.49
		 	
File Name:	UWB_patch_stairs_V2.rff		
			
		Phase	
Frequency	4.300 G	 [GHz]	
Polarizat.	90.00000	[deg]	
Roll	179.00000	[deg]
Ch.	Channel1		
Beam			
Switch			
Dir	0.00	dBi	
Azimuth  [deg]	Amplitude (dB)	Phase [Deg]	
-180.0000	-85.9275	-159.2713	
-175.0000	-87.2168	-148.1417	
-170.0000	-83.0637	-124.6329	
-165.0000	-77.8749	-144.5477	
-160.0000	-78.6508	178.0691	
-155.0000	-82.6427	-137.5832	
-150.0000	-79.1492	-153.6272	
-145.0000	-76.2913	-120.7326	
-140.0000	-78.9952	-138.8282	
-135.0000	-74.6869	-121.4873	
-130.0000	-71.1777	-103.2015	
-125.0000	-71.1918	-126.3763	
-120.0000	-75.5425	-114.3954	
-115.0000	-73.9075	-123.3639	
-110.0000	-77.8365	-110.2183	
-105.0000	-75.6621	-68.4362	
-100.0000	-75.3808	-86.5540	
-95.0000	-75.4278	-82.4168	
-90.0000	-76.1553	-82.7673	
-85.0000	-77.3667	-63.0838	
-80.0000	-75.5966	-57.2489	
-75.0000	-76.5022	-43.6664	
-70.0000	-78.3218	-38.9089	
-65.0000	-79.0898	-42.5584	
-60.0000	-75.9889	-30.6719	
-55.0000	-78.3790	-4.5362	
-50.0000	-79.4289	-12.8446	
-45.0000	-77.1697	-8.1163	
-40.0000	-82.9747	19.8390	
-35.0000	-77.7586	15.4031	
-30.0000	-80.5540	15.8067	
-25.0000	-79.4540	19.2291	
-20.0000	-83.5728	15.3650	
-15.0000	-86.1685	60.7693	
-10.0000	-83.8789	74.3925	
-5.0000	-83.1864	72.2307	
0.0000	-85.3678	74.4669	
5.0000	-85.9100	68.6951	
10.0000	-84.4071	69.0544	
15.0000	-80.8740	92.3467	
20.0000	-80.0485	128.9379	
25.0000	-84.6575	160.1378	
30.0000	-83.5836	124.8822	
35.0000	-87.9890	167.4295	
40.0000	-80.5411	101.0150	
45.0000	-82.2504	144.2342	
50.0000	-78.3111	126.3142	
55.0000	-81.6025	86.9102	
60.0000	-78.8510	118.8441	
65.0000	-77.8049	112.3552	
70.0000	-76.2142	95.3527	
75.0000	-79.0843	93.6764	
80.0000	-76.7867	81.3650	
85.0000	-76.9779	92.8564	
90.0000	-74.5655	69.8582	
95.0000	-74.7919	63.0746	
100.0000	-73.7082	45.3617	
105.0000	-75.8923	44.5963	
110.0000	-74.9516	38.9408	
115.0000	-74.0848	41.1242	
120.0000	-75.1759	43.9923	
125.0000	-73.5436	23.8896	
130.0000	-75.2391	33.1102	
135.0000	-80.1812	50.2301	
140.0000	-75.9628	20.3317	
145.0000	-82.2691	84.6051	
150.0000	-97.6752	-90.5831	
155.0000	-80.2375	-83.5324	
160.0000	-78.5717	-30.9963	
165.0000	-82.5322	19.7460	
170.0000	-91.3557	138.7475	
175.0000	-85.3578	-165.6940	
180.0000	-84.8687	-161.6946	
			
			
			
[Side Lobes Table]
			
No.	Rel Ampl	Azimuth  [deg]	Absolute Ampl
1L	-5.11	-145.00	-76.29
2L	-6.70	-165.00	-77.87
1R	-2.73	-115.00	-73.91
2R	-4.20	-100.00	-75.38
3R	-4.42	-80.00	-75.60
		 	
File Name:	UWB_patch_stairs_V2.rff		
			
		Phase	
Frequency	4.500 G	 [GHz]	
Polarizat.	90.00000	[deg]	
Roll	179.00000	[deg]
Ch.	Channel1		
Beam			
Switch			
Dir	0.00	dBi	
Azimuth  [deg]	Amplitude (dB)	Phase [Deg]	
-180.0000	-86.4504	-139.0492	
-175.0000	-82.8394	-150.0083	
-170.0000	-81.0007	-162.2269	
-165.0000	-79.1124	-176.1455	
-160.0000	-80.5978	168.6968	
-155.0000	-79.4185	-156.3552	
-150.0000	-76.1860	-168.6911	
-145.0000	-77.9020	-152.0475	
-140.0000	-74.8808	-156.4759	
-135.0000	-74.5747	-129.3069	
-130.0000	-71.9723	-142.5814	
-125.0000	-72.2196	-153.5435	
-120.0000	-73.9713	-138.4603	
-115.0000	-73.7717	-142.1714	
-110.0000	-75.7256	-115.7335	
-105.0000	-72.9879	-105.0054	
-100.0000	-75.2245	-96.5750	
-95.0000	-75.9278	-95.9046	
-90.0000	-78.7095	-90.5757	
-85.0000	-78.2472	-91.9423	
-80.0000	-77.2331	-89.6337	
-75.0000	-76.9929	-69.7450	
-70.0000	-78.9757	-65.7302	
-65.0000	-78.5955	-52.7488	
-60.0000	-80.5427	-48.3374	
-55.0000	-80.9214	-62.3357	
-50.0000	-77.8584	-41.7836	
-45.0000	-84.4001	-24.7565	
-40.0000	-79.2818	-35.4865	
-35.0000	-83.5614	-22.7269	
-30.0000	-83.2372	-13.9628	
-25.0000	-82.9033	-6.3628	
-20.0000	-82.2140	-20.1117	
-15.0000	-86.6395	-26.9638	
-10.0000	-94.5211	-8.3420	
-5.0000	-92.2379	58.6208	
0.0000	-89.3605	65.2101	
5.0000	-87.9188	67.6083	
10.0000	-87.4161	86.1529	
15.0000	-88.4251	111.8131	
20.0000	-92.8283	150.4577	
25.0000	-101.5692	85.6226	
30.0000	-88.3012	87.5573	
35.0000	-82.3367	99.2533	
40.0000	-82.9876	151.1071	
45.0000	-84.3074	98.9825	
50.0000	-85.7142	114.8382	
55.0000	-80.0391	118.2737	
60.0000	-80.6891	94.7251	
65.0000	-78.8272	82.6302	
70.0000	-84.1151	75.6941	
75.0000	-78.2539	92.8761	
80.0000	-78.7607	90.1979	
85.0000	-75.0934	76.3562	
90.0000	-75.7150	62.1291	
95.0000	-73.3006	51.6118	
100.0000	-76.1074	41.2390	
105.0000	-74.0377	38.7799	
110.0000	-75.1131	30.8743	
115.0000	-74.0663	25.1760	
120.0000	-72.4366	15.7217	
125.0000	-75.3253	15.6908	
130.0000	-71.4080	14.8016	
135.0000	-78.7976	7.6423	
140.0000	-73.8757	13.4628	
145.0000	-77.9814	-0.2225	
150.0000	-80.4295	50.6591	
155.0000	-81.4793	-95.5202	
160.0000	-78.0426	-50.8946	
165.0000	-81.0391	-25.4155	
170.0000	-88.6739	-5.6040	
175.0000	-95.7468	-115.0965	
180.0000	-85.2943	-136.7770	
			
			
			
[Side Lobes Table]
			
No.	Rel Ampl	Azimuth  [deg]	Absolute Ampl
1L	-1.03	120.00	-72.44
2L	-2.63	105.00	-74.04
3L	-1.89	95.00	-73.30
1R	-2.47	140.00	-73.88
2R	-6.63	160.00	-78.04
		 	
File Name:	UWB_patch_stairs_V2.rff		
			
		Phase	
Frequency	4.800 G	 [GHz]	
Polarizat.	90.00000	[deg]	
Roll	179.00000	[deg]
Ch.	Channel1		
Beam			
Switch			
Dir	0.00	dBi	
Azimuth  [deg]	Amplitude (dB)	Phase [Deg]	
-180.0000	-85.5483	-30.7800	
-175.0000	-81.7646	-38.6069	
-170.0000	-80.5634	-48.7760	
-165.0000	-82.0796	-39.3442	
-160.0000	-77.3201	-22.4833	
-155.0000	-75.6168	-37.6993	
-150.0000	-77.4011	-18.3008	
-145.0000	-77.3613	-11.4370	
-140.0000	-75.4859	-7.3702	
-135.0000	-72.5847	9.4935	
-130.0000	-72.1749	4.7148	
-125.0000	-76.4468	8.5856	
-120.0000	-75.5643	10.7285	
-115.0000	-77.4415	16.6071	
-110.0000	-75.6420	52.1699	
-105.0000	-77.4546	44.6726	
-100.0000	-76.5803	48.8974	
-95.0000	-77.7581	46.2539	
-90.0000	-78.2388	57.4651	
-85.0000	-78.8324	62.4253	
-80.0000	-77.6868	73.5968	
-75.0000	-80.2750	89.8706	
-70.0000	-85.2402	94.9635	
-65.0000	-84.5551	96.0072	
-60.0000	-84.2928	77.8145	
-55.0000	-86.8644	112.1473	
-50.0000	-88.6038	102.6640	
-45.0000	-86.8276	127.7281	
-40.0000	-88.8278	129.2021	
-35.0000	-89.2064	146.9833	
-30.0000	-88.3456	158.0156	
-25.0000	-90.4693	159.0949	
-20.0000	-92.8341	-169.9944	
-15.0000	-89.4941	-171.4024	
-10.0000	-87.5786	-175.0339	
-5.0000	-87.0745	-171.6318	
0.0000	-86.5975	-171.0887	
5.0000	-84.9520	-175.5769	
10.0000	-83.9325	-164.1760	
15.0000	-86.0716	-142.6913	
20.0000	-88.1850	-140.7977	
25.0000	-93.4807	-135.3458	
30.0000	-90.9410	171.8998	
35.0000	-86.6660	-163.4514	
40.0000	-91.9949	-162.5502	
45.0000	-86.3029	-153.5496	
50.0000	-88.2471	-126.8592	
55.0000	-94.3725	167.6425	
60.0000	-83.9547	-128.1196	
65.0000	-84.2792	-132.0774	
70.0000	-81.4097	-157.1315	
75.0000	-88.3363	-149.9644	
80.0000	-82.5076	-137.3216	
85.0000	-82.5691	-124.3755	
90.0000	-79.0938	-135.9142	
95.0000	-79.6610	-144.6227	
100.0000	-76.9513	-147.8893	
105.0000	-77.1770	-175.1657	
110.0000	-75.5189	-174.9002	
115.0000	-75.8349	-177.8235	
120.0000	-73.0816	163.8609	
125.0000	-74.2686	161.7975	
130.0000	-73.6187	146.0733	
135.0000	-76.1691	164.0304	
140.0000	-76.1649	154.9215	
145.0000	-75.9584	141.0761	
150.0000	-80.9642	172.8512	
155.0000	-84.2640	140.4723	
160.0000	-94.1917	71.6090	
165.0000	-82.2938	65.8109	
170.0000	-86.5574	93.8226	
175.0000	-100.3244	7.6859	
180.0000	-85.8073	-30.0897	
			
			
			
[Side Lobes Table]
			
No.	Rel Ampl	Azimuth  [deg]	Absolute Ampl
1L	-3.44	-155.00	-75.62
1R	-3.39	-120.00	-75.56
2R	-3.47	-110.00	-75.64
3R	-4.41	-100.00	-76.58
		 	
File Name:	UWB_patch_stairs_V2.rff		
			
		Phase	
Frequency	5.000 G	 [GHz]	
Polarizat.	90.00000	[deg]	
Roll	179.00000	[deg]
Ch.	Channel1		
Beam			
Switch			
Dir	0.00	dBi	
Azimuth  [deg]	Amplitude (dB)	Phase [Deg]	
-180.0000	-88.5564	-44.4775	
-175.0000	-84.3087	-51.9799	
-170.0000	-81.1991	-52.5087	
-165.0000	-79.9202	-56.0889	
-160.0000	-77.5332	-37.0232	
-155.0000	-75.1615	-51.2309	
-150.0000	-78.0671	-24.2537	
-145.0000	-75.4219	-32.5001	
-140.0000	-73.8787	-18.8657	
-135.0000	-72.7423	-7.3692	
-130.0000	-73.3287	-15.1870	
-125.0000	-76.8325	-6.2593	
-120.0000	-74.3318	-5.8307	
-115.0000	-76.5069	15.2509	
-110.0000	-75.6009	24.6984	
-105.0000	-79.0947	40.5471	
-100.0000	-78.7638	30.6708	
-95.0000	-82.0814	32.1216	
-90.0000	-82.2178	42.7405	
-85.0000	-84.4262	50.3461	
-80.0000	-83.8380	36.4346	
-75.0000	-84.3545	34.3284	
-70.0000	-84.5306	70.2533	
-65.0000	-88.8325	76.8258	
-60.0000	-92.3501	58.5253	
-55.0000	-93.3793	42.1093	
-50.0000	-94.5364	45.8506	
-45.0000	-86.6896	85.4065	
-40.0000	-99.1057	61.9625	
-35.0000	-95.5384	105.8799	
-30.0000	-96.8592	130.9149	
-25.0000	-101.4052	103.9849	
-20.0000	-102.3176	158.8701	
-15.0000	-94.6606	128.4930	
-10.0000	-93.9499	108.8468	
-5.0000	-98.9667	132.8033	
0.0000	-95.3856	154.4390	
5.0000	-93.9537	-155.9116	
10.0000	-95.2362	-110.3737	
15.0000	-97.7232	31.3981	
20.0000	-97.7908	79.6697	
25.0000	-95.8504	172.2822	
30.0000	-99.9109	-170.7437	
35.0000	-99.5526	-130.1782	
40.0000	-92.3383	-164.3010	
45.0000	-91.0973	-56.5686	
50.0000	-93.2066	-161.3748	
55.0000	-87.0989	-134.4797	
60.0000	-90.7931	178.4312	
65.0000	-88.5124	-165.7821	
70.0000	-93.3561	-94.4080	
75.0000	-82.0730	-131.4861	
80.0000	-84.0079	-143.7398	
85.0000	-78.8807	-135.5825	
90.0000	-77.7878	-154.4831	
95.0000	-75.4582	-157.7565	
100.0000	-75.0741	-174.1525	
105.0000	-74.8380	175.6271	
110.0000	-74.4035	170.6647	
115.0000	-74.4405	168.4035	
120.0000	-72.9967	158.6527	
125.0000	-72.3174	150.2437	
130.0000	-72.5377	131.6411	
135.0000	-73.2763	139.2962	
140.0000	-76.1853	135.5753	
145.0000	-74.2728	126.8576	
150.0000	-77.5809	120.6730	
155.0000	-78.8018	134.5287	
160.0000	-84.0868	70.1202	
165.0000	-80.2532	75.3335	
170.0000	-84.6817	87.5880	
175.0000	-97.2964	24.4896	
180.0000	-88.4373	-49.9873	
			
			
			
[Side Lobes Table]
			
No.	Rel Ampl	Azimuth  [deg]	Absolute Ampl
1L	-2.09	110.00	-74.40
2L	-9.76	75.00	-82.07
3L	-16.19	65.00	-88.51
1R	-1.96	145.00	-74.27
2R	-7.94	165.00	-80.25
		 	
File Name:	UWB_patch_stairs_V2.rff		
			
		Phase	
Frequency	5.300 G	 [GHz]	
Polarizat.	90.00000	[deg]	
Roll	179.00000	[deg]
Ch.	Channel1		
Beam			
Switch			
Dir	0.00	dBi	
Azimuth  [deg]	Amplitude (dB)	Phase [Deg]	
-180.0000	-87.3213	63.3603	
-175.0000	-85.5162	63.1323	
-170.0000	-82.3366	80.1230	
-165.0000	-78.1016	78.5690	
-160.0000	-77.4057	79.8178	
-155.0000	-76.3307	71.8903	
-150.0000	-77.5092	112.6510	
-145.0000	-77.3981	98.5678	
-140.0000	-74.2418	111.9860	
-135.0000	-72.6392	126.3108	
-130.0000	-74.2960	128.1666	
-125.0000	-75.3378	148.7868	
-120.0000	-76.6360	152.1710	
-115.0000	-78.3042	-178.8860	
-110.0000	-78.5350	-177.5199	
-105.0000	-79.0823	-169.5568	
-100.0000	-82.7906	172.7746	
-95.0000	-84.4158	-173.3469	
-90.0000	-85.5578	-164.0188	
-85.0000	-84.4410	-164.7682	
-80.0000	-86.7263	-165.3734	
-75.0000	-85.1979	-161.7927	
-70.0000	-85.2411	-148.5118	
-65.0000	-92.1782	-145.3231	
-60.0000	-92.7737	-144.0082	
-55.0000	-95.9393	138.5149	
-50.0000	-91.7999	-143.5388	
-45.0000	-90.1364	132.7556	
-40.0000	-93.9970	-120.8648	
-35.0000	-118.1025	114.7499	
-30.0000	-113.5634	-153.0096	
-25.0000	-102.0624	-82.1510	
-20.0000	-100.3302	-179.6326	
-15.0000	-95.4529	43.1277	
-10.0000	-93.4353	7.8577	
-5.0000	-96.2209	-20.1480	
0.0000	-100.6294	-40.4789	
5.0000	-95.7188	-67.1694	
10.0000	-91.6879	-75.4430	
15.0000	-86.9493	-42.9334	
20.0000	-86.6221	0.9285	
25.0000	-106.9683	162.9304	
30.0000	-93.3599	-71.4140	
35.0000	-90.7418	-61.6993	
40.0000	-97.7406	-74.8452	
45.0000	-86.6641	-50.1687	
50.0000	-93.1123	-67.4252	
55.0000	-92.8963	-67.3135	
60.0000	-86.1291	-59.2154	
65.0000	-90.1671	-116.3941	
70.0000	-95.4549	-72.5042	
75.0000	-94.9923	-108.7853	
80.0000	-91.1129	-10.9160	
85.0000	-88.9952	-37.9613	
90.0000	-83.5996	-10.8390	
95.0000	-79.0993	-27.6753	
100.0000	-78.5300	-27.6797	
105.0000	-76.9653	-40.3600	
110.0000	-75.6836	-49.1481	
115.0000	-75.0990	-60.7742	
120.0000	-75.4332	-70.3598	
125.0000	-73.6876	-78.1797	
130.0000	-75.9071	-89.9527	
135.0000	-74.7638	-84.7836	
140.0000	-77.0409	-76.4783	
145.0000	-75.7337	-97.6154	
150.0000	-79.5294	-103.9813	
155.0000	-81.4066	-98.0980	
160.0000	-84.0197	-130.5422	
165.0000	-84.8171	-125.0986	
170.0000	-93.7905	-127.2032	
175.0000	-97.2366	84.3662	
180.0000	-87.2785	60.9801	
			
			
			
[Side Lobes Table]
			
No.	Rel Ampl	Azimuth  [deg]	Absolute Ampl
1R	-11.80	-85.00	-84.44
2R	-12.56	-75.00	-85.20
3R	-17.50	-45.00	-90.14
		 	
File Name:	UWB_patch_stairs_V2.rff		
			
		Phase	
Frequency	6.000 G	 [GHz]	
Polarizat.	90.00000	[deg]	
Roll	179.00000	[deg]
Ch.	Channel1		
Beam			
Switch			
Dir	0.00	dBi	
Azimuth  [deg]	Amplitude (dB)	Phase [Deg]	
-180.0000	-91.5289	85.3250	
-175.0000	-92.7394	139.9053	
-170.0000	-85.0001	147.5486	
-165.0000	-87.4399	109.1386	
-160.0000	-85.6793	-154.0947	
-155.0000	-92.2117	-163.5066	
-150.0000	-79.4685	-166.8622	
-145.0000	-76.7744	-133.2956	
-140.0000	-77.9404	-127.8242	
-135.0000	-79.4715	-132.0196	
-130.0000	-83.6260	-115.9496	
-125.0000	-83.7237	-98.7857	
-120.0000	-84.3200	-77.1538	
-115.0000	-81.5811	-89.4530	
-110.0000	-81.9382	-101.5945	
-105.0000	-86.0172	-117.2321	
-100.0000	-88.1519	-111.2777	
-95.0000	-90.5500	-100.4660	
-90.0000	-83.8110	-65.5604	
-85.0000	-80.8794	-69.5247	
-80.0000	-81.5790	-90.3854	
-75.0000	-84.0271	-82.5974	
-70.0000	-83.4613	-74.1360	
-65.0000	-83.2742	-60.9486	
-60.0000	-83.0017	-41.5359	
-55.0000	-82.9276	-38.9868	
-50.0000	-84.3177	-5.0845	
-45.0000	-93.1205	-27.7646	
-40.0000	-89.5736	-13.2909	
-35.0000	-92.9367	-46.7570	
-30.0000	-101.5959	122.7023	
-25.0000	-89.9913	85.6909	
-20.0000	-85.3970	-22.4509	
-15.0000	-83.4429	-110.3608	
-10.0000	-84.0731	-168.0159	
-5.0000	-87.8328	162.2023	
0.0000	-100.4207	162.4947	
5.0000	-95.0305	-41.1957	
10.0000	-95.3191	51.3577	
15.0000	-89.4862	156.2574	
20.0000	-87.6267	-123.9382	
25.0000	-106.5613	168.6837	
30.0000	-102.9152	-128.4155	
35.0000	-86.8613	136.3676	
40.0000	-88.7979	132.4725	
45.0000	-86.3929	102.0698	
50.0000	-92.7630	84.0539	
55.0000	-89.4873	100.4792	
60.0000	-90.3578	100.7017	
65.0000	-87.6868	103.7530	
70.0000	-93.1015	83.3742	
75.0000	-92.3051	138.2312	
80.0000	-96.3924	90.3634	
85.0000	-90.0861	18.4129	
90.0000	-85.8454	43.3962	
95.0000	-82.3810	79.0579	
100.0000	-84.6390	98.4838	
105.0000	-87.6831	111.5857	
110.0000	-88.7603	29.1444	
115.0000	-82.1113	26.0217	
120.0000	-78.4058	35.1642	
125.0000	-78.3550	28.4429	
130.0000	-76.6673	20.6280	
135.0000	-77.8991	7.5018	
140.0000	-79.9992	0.7310	
145.0000	-86.0281	0.5442	
150.0000	-80.2427	32.4849	
155.0000	-83.3913	-31.5924	
160.0000	-97.5757	129.5995	
165.0000	-82.6617	-68.7793	
170.0000	-84.2963	-0.9089	
175.0000	-88.5455	56.0862	
180.0000	-91.9212	89.5538	
			
			
			
[Side Lobes Table]
			
No.	Rel Ampl	Azimuth  [deg]	Absolute Ampl
1L	-5.71	95.00	-82.38
2L	-15.64	75.00	-92.31
3L	-11.02	65.00	-87.69
1R	-3.58	150.00	-80.24
	



[Statistics Table]
			Freq.	Polarizat.	Ch.	Beam	Switch	Beam Peak [dB]		 	Beam Width [deg]		 	Null Depth [dB]		 				
File Name			 [GHz]	[deg]				Value	[deg]		Value	At dB		Value	[deg]				 	 
UWB_patch_stairs_V2.rff			3.000 G	0.00000	Channel1			-58.48	-155.00	P	22.98	3.00	P				0.00			
UWB_patch_stairs_V2.rff			3.400 G	0.00000	Channel1			-60.07	155.00	P	14.56	3.00	P				0.00			
UWB_patch_stairs_V2.rff			3.700 G	0.00000	Channel1			-61.87	155.00	P	14.08	3.00	P				0.00			
UWB_patch_stairs_V2.rff			4.000 G	0.00000	Channel1			-63.30	160.00	P	16.13	3.00	P				0.00			
UWB_patch_stairs_V2.rff			4.300 G	0.00000	Channel1			-64.47	160.00	P	N/A	3.00	P				0.00			
UWB_patch_stairs_V2.rff			4.500 G	0.00000	Channel1			-63.38	180.00	P	N/A	3.00	P				0.00			
UWB_patch_stairs_V2.rff			4.800 G	0.00000	Channel1			-63.52	-5.00	P	56.18	3.00	P				0.00			
UWB_patch_stairs_V2.rff			5.000 G	0.00000	Channel1			-65.24	15.00	P	73.04	3.00	P				0.00			
UWB_patch_stairs_V2.rff			5.300 G	0.00000	Channel1			-64.67	-20.00	P	69.38	3.00	P				0.00			
UWB_patch_stairs_V2.rff			6.000 G	0.00000	Channel1			-68.24	-10.00	P	69.20	3.00	P				0.00			
UWB_patch_stairs_V2.rff			3.000 G	90.00000	Channel1			-64.16	-110.00	P	20.16	3.00	P				0.00			
UWB_patch_stairs_V2.rff			3.400 G	90.00000	Channel1			-65.80	-115.00	P	7.95	3.00	P				0.00			
UWB_patch_stairs_V2.rff			3.700 G	90.00000	Channel1			-69.83	-125.00	P	25.21	3.00	P				0.00			
UWB_patch_stairs_V2.rff			4.000 G	90.00000	Channel1			-71.00	125.00	P	37.48	3.00	P				0.00			
UWB_patch_stairs_V2.rff			4.300 G	90.00000	Channel1			-71.18	-130.00	P	13.40	3.00	P				0.00			
UWB_patch_stairs_V2.rff			4.500 G	90.00000	Channel1			-71.41	130.00	P	6.97	3.00	P				0.00			
UWB_patch_stairs_V2.rff			4.800 G	90.00000	Channel1			-72.17	-130.00	P	12.98	3.00	P				0.00			
UWB_patch_stairs_V2.rff			5.000 G	90.00000	Channel1			-72.32	125.00	P	41.67	3.00	P				0.00			
UWB_patch_stairs_V2.rff			5.300 G	90.00000	Channel1			-72.64	-135.00	P	18.37	3.00	P				0.00			
UWB_patch_stairs_V2.rff			6.000 G	90.00000	Channel1			-76.67	130.00	P	20.91	3.00	P				0.00			



[Database Table]
First Question	
2nd	
3rd	
4th	
